# Soil optical properties : White gypsum dune sand
# Colums : Wavelength(nm) Reflectance(%) Transmitance(%)
#
300 46.8108
400 46.8108
401 47.0858
402 47.1621
403 47.6814
404 48.2029
405 48.0813
406 48.4702
407 48.4702
408 48.3860
409 48.7271
410 49.1717
411 49.3010
412 49.3816
413 49.4682
414 49.7558
415 49.7850
416 49.9561
417 50.3410
418 50.5192
419 50.8570
420 51.1086
421 51.4612
422 51.6298
423 51.8736
424 51.9850
425 51.8178
426 52.5613
427 52.5965
428 52.5623
429 52.5372
430 53.1245
431 53.3501
432 53.9352
433 53.9344
434 53.8374
435 54.0699
436 54.6196
437 54.7520
438 55.0724
439 55.2611
440 55.4506
441 55.8081
442 55.5996
443 56.0593
444 56.3408
445 56.2727
446 56.4937
447 57.1427
448 56.6802
449 56.8663
450 57.4331
451 57.5960
452 58.0935
453 57.9168
454 58.3277
455 58.6032
456 59.0565
457 58.9843
458 58.3371
459 58.3218
460 58.8529
461 59.0539
462 59.2177
463 59.4916
464 59.8196
465 59.6886
466 59.4148
467 60.0543
468 59.7623
469 59.9431
470 60.3466
471 60.9034
472 61.1579
473 60.9034
474 61.0685
475 61.4376
476 61.2946
477 60.9516
478 61.1297
479 61.4846
480 61.7257
481 62.1334
482 62.0676
483 61.6614
484 61.7115
485 61.9373
486 62.4970
487 62.8226
488 63.1151
489 62.8807
490 62.6054
491 62.8608
492 62.7800
493 63.3856
494 63.7960
495 63.7327
496 63.7721
497 63.7728
498 63.9775
499 64.6291
500 64.4747
501 64.3689
502 64.7726
503 64.6126
504 64.6925
505 64.8638
506 65.0296
507 65.0347
508 65.2406
509 65.7762
510 65.9433
511 65.8243
512 65.8207
513 65.9535
514 66.3710
515 66.7694
516 66.2919
517 66.2946
518 66.8580
519 66.9179
520 67.7339
521 67.2909
522 67.3334
523 67.3565
524 66.8339
525 66.9179
526 67.0033
527 67.7318
528 67.4818
529 67.6065
530 67.7725
531 68.0206
532 67.8356
533 68.5240
534 69.1190
535 69.0331
536 69.1525
537 69.5793
538 69.4853
539 69.4030
540 69.5206
541 69.6414
542 69.6655
543 69.7438
544 70.2211
545 69.2432
546 70.1258
547 70.2554
548 70.6361
549 71.0995
550 71.0860
551 71.4441
552 71.5528
553 71.1188
554 71.5017
555 71.2419
556 71.5452
557 71.7557
558 72.1515
559 72.3295
560 72.5612
561 72.7212
562 72.8114
563 72.6326
564 72.7269
565 73.2781
566 73.5717
567 73.7413
568 73.7867
569 73.8776
570 74.1243
571 73.8838
572 73.7692
573 73.6622
574 74.1957
575 74.3473
576 74.2144
577 74.6816
578 75.1550
579 75.1074
580 75.3425
581 75.2651
582 74.6136
583 75.0758
584 75.5509
585 76.3586
586 75.5818
587 75.9193
588 75.8551
589 76.2246
590 76.0992
591 76.3991
592 75.8871
593 75.8391
594 75.7755
595 76.7078
596 76.5271
597 76.4304
598 76.3692
599 76.2728
600 76.3796
601 76.5205
602 76.5650
603 76.5785
604 76.7346
605 76.9044
606 76.8091
607 76.5720
608 76.2755
609 76.3695
610 76.4165
611 76.4636
612 76.7131
613 76.8977
614 76.9450
615 76.6960
616 76.5546
617 76.8032
618 76.6745
619 75.9754
620 76.3766
621 76.3645
622 77.3588
623 77.7034
624 77.2646
625 77.1047
626 76.7814
627 76.9397
628 77.2830
629 77.3955
630 77.6255
631 77.5489
632 77.7497
633 77.6832
634 77.5592
635 77.5118
636 77.2280
637 77.3879
638 77.5779
639 77.2281
640 77.3224
641 77.7405
642 77.9117
643 77.7880
644 77.3515
645 77.2752
646 77.3515
647 76.8997
648 77.1102
649 77.5140
650 77.5037
651 77.4933
652 78.1113
653 78.5228
654 78.6399
655 78.3782
656 78.0145
657 78.1788
658 77.8260
659 78.0917
660 78.2718
661 78.3987
662 78.4746
663 77.8450
664 78.3306
665 78.3786
666 78.2547
667 78.3106
668 78.8192
669 78.8739
670 78.9011
671 78.6812
672 78.8498
673 78.7265
674 78.8426
675 78.8353
676 78.3673
677 78.7314
678 78.8353
679 78.9387
680 78.3178
681 78.2141
682 78.2615
683 78.5078
684 78.3566
685 78.4602
686 78.7265
687 78.7743
688 79.2890
689 79.4340
690 79.1444
691 79.1444
692 79.1444
693 79.1172
694 79.2347
695 79.2619
696 79.3315
697 79.6453
698 79.5863
699 79.6738
700 79.4342
701 79.2080
702 79.3763
703 79.4711
704 79.7092
705 79.7787
706 79.8266
707 79.8746
708 79.8048
709 79.8786
710 79.7569
711 80.0482
712 79.5924
713 79.4237
714 79.6399
715 79.9818
716 79.7439
717 79.9122
718 79.8864
719 80.1251
720 80.5407
721 79.7180
722 80.4911
723 80.5411
724 80.2971
725 79.8396
726 80.1797
727 79.8227
728 79.8037
729 80.1408
730 80.0904
731 80.3249
732 80.5391
733 80.4911
734 80.3475
735 80.3024
736 80.1821
737 80.4207
738 80.3002
739 80.6617
740 80.8781
741 80.9507
742 80.5678
743 80.3063
744 80.4735
745 80.4725
746 80.3285
747 80.7608
748 81.1685
749 80.8550
750 80.9529
751 80.5233
752 80.5919
753 80.6885
754 80.2354
755 80.6871
756 80.5669
757 80.7838
758 80.6170
759 81.1680
760 80.4275
761 80.4306
762 80.4086
763 80.6692
764 80.9782
765 81.2651
766 81.3129
767 81.0258
768 80.5748
769 80.3180
770 81.0988
771 81.0988
772 80.9796
773 81.0514
774 81.0989
775 81.2659
776 81.3137
777 81.1705
778 81.3133
779 81.6707
780 81.7439
781 80.9813
782 81.1473
783 81.2174
784 81.2656
785 81.5517
786 81.7437
787 81.9348
788 81.3137
789 81.7908
790 80.9338
791 81.0283
792 81.2702
793 81.3619
794 81.0301
795 81.6483
796 81.5049
797 81.0567
798 80.8643
799 80.8628
800 80.8591
804 81.2353
808 81.0828
812 81.2391
816 80.7088
820 80.8497
824 80.4025
828 80.9924
832 80.9324
836 80.8583
840 80.5357
844 80.7605
848 80.6358
852 80.3537
856 80.4145
860 80.1728
864 80.3567
868 80.2949
872 80.4126
876 80.1813
880 80.1120
884 80.3889
888 79.5202
892 79.4548
896 79.4046
900 79.5521
904 79.3715
908 79.2871
912 79.1294
916 79.3605
920 79.1083
924 78.9827
928 79.1502
932 79.0035
936 78.9616
940 78.6171
944 78.2611
948 77.9739
952 77.4938
956 77.1666
960 76.7809
964 76.4594
968 75.4366
972 74.9943
976 74.4003
980 73.9028
984 73.4018
988 72.8551
992 74.1277
996 74.5065
1000 75.2970
1004 75.9738
1008 76.3560
1012 76.6801
1016 77.5486
1020 78.1333
1024 78.5480
1028 78.9210
1032 79.0347
1036 80.0138
1040 80.1303
1044 80.0352
1048 79.7144
1052 80.2649
1056 79.9405
1060 79.5295
1064 79.7034
1068 79.4259
1072 79.7593
1076 80.2352
1080 80.1814
1084 79.1491
1088 79.5030
1092 79.3275
1096 78.7953
1100 78.3452
1104 78.5797
1108 78.3272
1112 78.1345
1116 78.2239
1120 77.7989
1124 77.6780
1128 77.4021
1132 77.0676
1136 75.8118
1140 73.6785
1144 73.0181
1148 72.0236
1152 70.2312
1156 68.2939
1160 66.0508
1164 64.4514
1168 63.1119
1172 62.3106
1176 62.2582
1180 62.1431
1184 61.9734
1188 62.0478
1192 61.6559
1196 61.5712
1200 61.7449
1204 62.3797
1208 63.3146
1212 63.4397
1216 64.3043
1220 64.7574
1224 65.4143
1228 65.7926
1232 66.4515
1236 67.5392
1240 68.2481
1244 68.8092
1248 69.2577
1252 69.7879
1256 70.1050
1260 70.5126
1264 70.7727
1268 70.7387
1272 70.6781
1276 70.6082
1280 70.6844
1284 70.6905
1288 70.3725
1292 70.1227
1296 69.9531
1300 69.0905
1304 68.5906
1308 67.6531
1312 66.8001
1316 66.1225
1320 65.5511
1324 64.3247
1328 62.7020
1332 61.3882
1336 59.6562
1340 57.9739
1344 56.5369
1348 55.2060
1352 53.9080
1356 52.9247
1360 51.9734
1364 50.9916
1368 49.9296
1372 49.6857
1376 48.7430
1380 48.0533
1384 47.0806
1388 45.9903
1392 44.0790
1396 41.8163
1400 39.3655
1404 36.5712
1408 33.1299
1412 29.9488
1416 27.1611
1420 25.0792
1424 22.3691
1428 19.3693
1432 16.5144
1436 14.8309
1440 15.1468
1444 16.4992
1448 18.8148
1452 20.0046
1456 20.7879
1460 21.4342
1464 21.8037
1468 21.9751
1472 21.7181
1476 21.0863
1480 20.6046
1484 20.8463
1488 21.8415
1492 22.9650
1496 23.6474
1500 26.5731
1504 27.5688
1508 27.9127
1512 27.6088
1516 27.2210
1520 26.8848
1524 26.3955
1528 26.2153
1532 26.7189
1536 27.9858
1540 30.1755
1544 32.1093
1548 33.6958
1552 35.5193
1556 37.3703
1560 38.8853
1564 40.0946
1568 41.1353
1572 42.1258
1576 43.2182
1580 44.3115
1584 45.2790
1588 46.5738
1592 47.8874
1596 49.2036
1600 50.4310
1604 51.7377
1608 52.4637
1612 53.4388
1616 54.4638
1620 55.2748
1624 56.3604
1628 57.4348
1632 58.3725
1636 58.9636
1640 59.6207
1644 60.2367
1648 60.9072
1652 61.3714
1656 61.2820
1660 61.0449
1664 61.0449
1668 60.9093
1672 60.4037
1676 59.6449
1680 58.6775
1684 57.1862
1688 55.5772
1692 53.4454
1696 51.0064
1700 48.8010
1704 45.9056
1708 42.4559
1712 39.7571
1716 36.9937
1720 34.4997
1724 31.8814
1728 30.1952
1732 28.2768
1736 27.4755
1740 27.1152
1744 27.3762
1748 28.2028
1752 29.0266
1756 29.8560
1760 30.4693
1764 31.1120
1768 31.8116
1772 32.3972
1776 33.5419
1780 35.0443
1784 36.4461
1788 37.6614
1792 38.8167
1796 39.9722
1800 40.8860
1804 41.2983
1808 42.2089
1812 42.2520
1816 42.2749
1820 42.5818
1824 42.4964
1828 42.3123
1832 41.6113
1836 41.0754
1840 40.0363
1844 38.3402
1848 36.7588
1852 34.5186
1856 32.0390
1860 29.2211
1864 26.0588
1868 22.8192
1872 19.7423
1876 17.5636
1880 15.6048
1884 13.3878
1888 11.6343
1892 9.9529
1896 8.3806
1900 7.1801
1904 6.1492
1908 5.2997
1912 4.4542
1916 3.8288
1920 3.1861
1924 2.8686
1928 2.6538
1932 2.5441
1936 2.5358
1940 2.5296
1944 2.8365
1948 2.9379
1952 3.1411
1956 3.4466
1960 3.5494
1964 3.6534
1968 3.9619
1972 3.8495
1976 4.5555
1980 5.1586
1984 6.0757
1988 7.4776
1992 9.0979
1996 10.7166
2000 12.2454
2004 14.0881
2008 15.3677
2012 16.6324
2016 17.7431
2020 18.6853
2024 19.4724
2028 20.0392
2032 20.3761
2036 20.9039
2040 21.1853
2044 21.6049
2048 21.3662
2052 21.4374
2056 21.5085
2060 21.3708
2064 21.4374
2068 21.3377
2072 20.9181
2076 20.8988
2079.5 20.5034
2080.3 20.5749
2081.2 20.6589
2082 20.6892
2082.8 20.6110
2083.7 20.4997
2084.5 20.4584
2085.3 20.4738
2086.2 20.3898
2087 20.2939
2087.9 20.1413
2088.7 20.0798
2089.5 20.0214
2090.4 19.9057
2091.2 19.7946
2092.1 19.7170
2092.9 19.6776
2093.8 19.6154
2094.6 19.4843
2095.5 19.3491
2096.3 19.2697
2097.1 19.1650
2098 19.0979
2098.8 19.0583
2099.7 18.9768
2100.5 18.8498
2101.4 18.6547
2102.3 18.5986
2103.1 18.5542
2104 18.4423
2104.8 18.3112
2105.7 18.1613
2106.5 18.1066
2107.4 18.0551
2108.2 17.9147
2109.1 17.7600
2110 17.6003
2110.8 17.4525
2111.7 17.3305
2112.5 17.1799
2113.4 17.0771
2114.3 17.0581
2115.1 17.0632
2116 16.9525
2116.8 16.7739
2117.7 16.6396
2118.6 16.5700
2119.4 16.4736
2120.3 16.3359
2121.2 16.3220
2122 16.2692
2122.9 16.1516
2123.8 16.0239
2124.7 15.8564
2125.5 15.7155
2126.4 15.6753
2127.3 15.6113
2128.1 15.5246
2129 15.4516
2129.9 15.4602
2130.8 15.4055
2131.6 15.2883
2132.5 15.2321
2133.4 15.2158
2134.3 15.2048
2135.2 15.0937
2136 14.9474
2136.9 14.8606
2137.8 14.7646
2138.7 14.7295
2139.6 14.6696
2140.4 14.5854
2141.3 14.5031
2142.2 14.4167
2143.1 14.3847
2144 14.2949
2144.9 14.2260
2145.8 14.2036
2146.6 14.1433
2147.5 14.0507
2148.4 13.9511
2149.3 13.8366
2150.2 13.7644
2151.1 13.6972
2152 13.6101
2152.9 13.4975
2153.8 13.4109
2154.7 13.3527
2155.6 13.2382
2156.5 13.1775
2157.4 13.1223
2158.3 13.0888
2159.2 13.0349
2160.1 12.9489
2161 12.8322
2161.9 12.7356
2162.8 12.6772
2163.7 12.6162
2164.6 12.4912
2165.5 12.3950
2166.4 12.3391
2167.3 12.3037
2168.2 12.2505
2169.1 12.1721
2170 12.0674
2170.9 11.9585
2171.8 11.9172
2172.7 11.8318
2173.6 11.7456
2174.6 11.6428
2175.5 11.6233
2176.4 11.6565
2177.3 11.6057
2178.2 11.5747
2179.1 11.5329
2180 11.5344
2181 11.5930
2181.9 11.5793
2182.8 11.5512
2183.7 11.5466
2184.6 11.5471
2185.6 11.5046
2186.5 11.4377
2187.4 11.3469
2188.3 11.3213
2189.3 11.3745
2190.2 11.3696
2191.1 11.2768
2192 11.2500
2193 11.2773
2193.9 11.2383
2194.8 11.1725
2195.7 11.1230
2196.7 11.0398
2197.6 10.9843
2198.5 10.9094
2199.5 10.8169
2200.4 10.7700
2201.3 10.6874
2202.3 10.5967
2203.2 10.5149
2204.1 10.4260
2205.1 10.3405
2206 10.2636
2207 10.1579
2207.9 10.0290
2208.8 9.9084
2209.8 9.8324
2210.7 9.7287
2211.7 9.5664
2212.6 9.5063
2213.6 9.5227
2214.5 9.5119
2215.5 9.5010
2216.4 9.3989
2217.3 9.3271
2218.3 9.3315
2219.2 9.3552
2220.2 9.3767
2221.1 9.4612
2222.1 9.6064
2223.1 9.7668
2224 9.8852
2225 10.0283
2225.9 10.2072
2226.9 10.3943
2227.8 10.6194
2228.8 10.7961
2229.7 10.9006
2230.7 10.9958
2231.7 11.1303
2232.6 11.2798
2233.6 11.4184
2234.5 11.4797
2235.5 11.4951
2236.5 11.5532
2237.4 11.6394
2238.4 11.6682
2239.4 11.7125
2240.3 11.7807
2241.3 11.7951
2242.3 11.8156
2243.3 11.8359
2244.2 11.8696
2245.2 11.9006
2246.2 11.9436
2247.1 11.9160
2248.1 11.9240
2249.1 11.9301
2250.1 11.8664
2251 11.8049
2252 11.8288
2253 11.8318
2254 11.7942
2255 11.7607
2255.9 11.7395
2256.9 11.7060
2257.9 11.6530
2258.9 11.5720
2259.9 11.4485
2260.9 11.3420
2261.8 11.2688
2262.8 11.2280
2263.8 11.1592
2264.8 11.0510
2265.8 10.9612
2266.8 10.9328
2267.8 10.9345
2268.8 10.9135
2269.8 10.9389
2270.8 11.0158
2271.8 11.0891
2272.8 11.1872
2273.8 11.3186
2274.7 11.4409
2275.7 11.5883
2276.7 11.7546
2277.7 11.9250
2278.7 12.0820
2279.8 12.2053
2280.8 12.3413
2281.8 12.4248
2282.8 12.5290
2283.8 12.6347
2284.8 12.6967
2285.8 12.8105
2286.8 12.8767
2287.8 12.9414
2288.8 12.9944
2289.8 13.0349
2290.8 13.1162
2291.8 13.1858
2292.9 13.2461
2293.9 13.2685
2294.9 13.2829
2295.9 13.3024
2296.9 13.3112
2297.9 13.3379
2299 13.4177
2300 13.4763
2301 13.5122
2302 13.5232
2303 13.4975
2304.1 13.5471
2305.1 13.6023
2306.1 13.6062
2307.1 13.5698
2308.2 13.5475
2309.2 13.5341
2310.2 13.5351
2311.3 13.5544
2312.3 13.5451
2313.3 13.5456
2314.4 13.5437
2315.4 13.5271
2316.4 13.5395
2317.5 13.5664
2318.5 13.5271
2319.5 13.4743
2320.6 13.4677
2321.6 13.4768
2322.6 13.4084
2323.7 13.3269
2324.7 13.2946
2325.8 13.3029
2326.8 13.3005
2327.9 13.2766
2328.9 13.1970
2330 13.0935
2331 13.0219
2332.1 12.9925
2333.1 12.9216
2334.2 12.8322
2335.2 12.8095
2336.3 12.7361
2337.3 12.6291
2338.4 12.5310
2339.4 12.4467
2340.5 12.3652
2341.5 12.2746
2342.6 12.2046
2343.6 12.1406
2344.7 12.0608
2345.8 11.9502
2346.8 11.7932
2347.9 11.6457
2349 11.5781
2350 11.4897
2351.1 11.3449
2352.2 11.2468
2353.2 11.1604
2354.3 11.0385
2355.4 10.9055
2356.4 10.7761
2357.5 10.6540
2358.6 10.5556
2359.7 10.4734
2360.7 10.3188
2361.8 10.1933
2362.9 10.0524
2364 9.9114
2365 9.7734
2366.1 9.6274
2367.2 9.4397
2368.3 9.2519
2369.4 9.1081
2370.4 8.9387
2371.5 8.8078
2372.6 8.6550
2373.7 8.4389
2374.8 8.2463
2375.9 8.1074
2377 7.9668
2378.1 7.7698
2379.1 7.5984
2380.2 7.4458
2381.3 7.2629
2382.4 7.1057
2383.5 6.9660
2384.6 6.7993
2385.7 6.5713
2386.8 6.3624
2387.9 6.2707
2389 6.1440
2390.1 5.9538
2391.2 5.7656
2392.3 5.5935
2393.4 5.4328
2394.5 5.2859
2395.6 5.1499
2396.7 4.9621
2397.9 4.8271
2399 4.7182
2400.1 4.5724
2401.2 4.4524
2402.3 4.3523
2403.4 4.2373
2404.5 4.1128
2405.6 4.0044
2406.8 3.9368
2407.9 3.8662
2409 3.8330
2410.1 3.8003
2411.2 3.7192
2412.4 3.6628
2413.5 3.6257
2414.6 3.5889
2415.7 3.5393
2416.9 3.4343
2418 3.3523
2419.1 3.3489
2420.2 3.3642
2421.4 3.3501
2422.5 3.3350
2423.6 3.3328
2424.8 3.3105
2425.9 3.3181
2427 3.3054
2428.2 3.2324
2429.3 3.2056
2430.5 3.1997
2431.6 3.1946
2432.7 3.1501
2433.9 3.1460
2435 3.1413
2436.2 3.1484
2437.3 3.1404
2438.5 3.1704
2439.6 3.1633
2440.8 3.0891
2441.9 3.0510
2443.1 3.0622
2444.2 3.0515
2445.4 3.0747
2446.5 3.1128
2447.7 3.0854
2448.8 3.0503
2450 3.0742
2451.1 3.0730
2452.3 3.0386
2453.5 3.0115
2454.6 2.9541
2455.8 2.9416
2456.9 2.9536
2458.1 2.9394
2459.3 2.9302
2460.4 2.9070
2461.6 2.9072
2462.8 2.9167
2464 2.8562
2465.1 2.8362
2466.3 2.9055
2467.5 2.8931
2468.6 2.8621
2469.8 2.8618
2471 2.8318
2472.2 2.7959
2473.4 2.7910
2474.5 2.8026
2475.7 2.7795
2476.9 2.7410
2478.1 2.7358
2479.3 2.7429
2480.5 2.7637
2481.6 2.7537
2482.8 2.7615
2484 2.7937
2485.2 2.7414
2486.4 2.6882
2487.6 2.7109
2488.8 2.6885
2490 2.6843
2491.2 2.7078
2492.4 2.7041
2493.6 2.7165
2494.8 2.7666
2496 2.8122
2497.2 2.8184
2498.4 2.8115
2499.6 2.7783
2500.8 2.7388
2502 2.7356
2503.2 2.7307
2504.4 2.7224
2505.6 2.7468
2506.8 2.7507
2508.1 2.7646
2509.3 2.8203
2510.5 2.8667
2511.7 2.8376
2512.9 2.8489
2514.1 2.8816
2515.4 2.8767
2516.6 2.8562
2517.8 2.8938
2519 2.9241
2520.2 2.9473
2521.5 2.9521
2522.7 2.9316
2523.9 2.9573
2525.2 2.9507
2526.4 2.9419
2527.6 2.9297
2528.9 2.9363
2530.1 2.9236
2531.3 2.9038
2532.6 2.8796
2533.8 2.9343
2535 2.9629
2536.3 2.9419
2537.5 2.8976
2538.8 2.8828
2540 2.8809
2541.3 2.8635
2542.5 2.8542
2543.7 2.7961
2545 2.7947
2546.2 2.8171
2547.5 2.7930
2548.7 2.7781
2550 2.7539
2551.3 2.7297
2552.5 2.7524
2553.8 2.7273
2555 2.6785
2556.3 2.6545
2557.5 2.6489
2558.8 2.6797
2560.1 2.7017
2561.3 2.6719
2562.6 2.6079
2563.9 2.6155
2565.1 2.6789
2566.4 2.6787
2567.7 2.6489
2569 2.6169
2570.2 2.5952
2571.5 2.5427
2572.8 2.5166
2574.1 2.5796
2575.3 2.5940
2576.6 2.5586
2577.9 2.5349
2579.2 2.5083
2580.5 2.5474
2581.7 2.5876
2583 2.5478
2584.3 2.5054
2585.6 2.5224
2586.9 2.5652
2588.2 2.5840
2589.5 2.5752
2590.8 2.5549
2592.1 2.5295
2593.4 2.4761
2594.7 2.4753
2596 2.5359
2597.3 2.5386
2598.6 2.4783
2599.9 2.4692
2601.2 2.4790
2602.5 2.4487
2603.8 2.4023
2605.1 2.4082
2606.4 2.4246
2607.7 2.4351
2609 2.4331
2610.3 2.3974
2611.7 2.3984
2613 2.3624
2614.3 2.3093
2615.6 2.3149
2616.9 2.3457
2618.3 2.3645
2619.6 2.3486
2620.9 2.3472
2622.2 2.3806
2623.6 2.3774
2624.9 2.3726
2626.2 2.3557
2627.5 2.3005
2628.9 2.2866
2630.2 2.2622
2631.5 2.2761
2632.9 2.2856
2634.2 2.2859
2635.6 2.2478
2636.9 2.2029
2638.2 2.2104
2639.6 2.2274
2640.9 2.2019
2642.3 2.1423
2643.6 2.0972
2645 2.0884
2646.3 2.1099
2647.7 2.1213
2649 2.0998
2650.4 2.0427
2651.7 1.9836
2653.1 1.9416
2654.5 1.9165
2655.8 1.9319
2657.2 1.9360
2658.5 1.9097
2659.9 1.8826
2661.3 1.8589
2662.6 1.8335
2664 1.7893
2665.4 1.7805
2666.7 1.7419
2668.1 1.7041
2669.5 1.6660
2670.9 1.6680
2672.2 1.6804
2673.6 1.6851
2675 1.6387
2676.4 1.5857
2677.8 1.5894
2679.1 1.5591
2680.5 1.5393
2681.9 1.5627
2683.3 1.6018
2684.7 1.5937
2686.1 1.5478
2687.5 1.5166
2688.9 1.4907
2690.3 1.4631
2691.7 1.4465
2693.1 1.4426
2694.5 1.4376
2695.9 1.4167
2697.3 1.4102
2698.7 1.4006
2700.1 1.3945
2701.5 1.3750
2702.9 1.3428
2704.3 1.3372
2705.7 1.2683
2707.1 1.2488
2708.5 1.2852
2710 1.2727
2711.4 1.2246
2712.8 1.2109
2714.2 1.1899
2715.6 1.1587
2717.1 1.1504
2718.5 1.1443
2719.9 1.1267
2721.3 1.0952
2722.8 1.1018
2724.2 1.1147
2725.6 1.1001
2727.1 1.0945
2728.5 1.1016
2729.9 1.0564
2731.4 1.0356
2732.8 1.0190
2734.3 1.0027
2735.7 1.0259
2737.1 0.9951
2738.6 0.9336
2740 0.9700
2741.5 1.0327
2742.9 1.0161
2744.4 0.9939
2745.8 0.9988
2747.3 0.9739
2748.8 0.9280
2750.2 0.9309
2751.7 0.9236
2753.1 0.8955
2754.6 0.8877
2756.1 0.9004
2757.5 0.8979
2759 0.8660
2760.5 0.8406
2761.9 0.8596
2763.4 0.8708
2764.9 0.8728
2766.4 0.8779
2767.8 0.8616
2769.3 0.8689
2770.8 0.8940
2772.3 0.8826
2773.8 0.8936
2775.2 0.8987
2776.7 0.9145
2778.2 0.9192
2779.7 0.8999
2781.2 0.8904
2782.7 0.9243
2784.2 0.9573
2785.7 0.9874
2787.2 1.0049
2788.7 1.0542
2790.2 1.0906
2791.7 1.1680
2793.2 1.2319
2794.7 1.2690
2796.2 1.3135
2797.7 1.3779
2799.2 1.4558
2800.7 1.5471
2802.2 1.6851
2803.8 1.7605
2805.3 1.8667
2806.8 2.0251
2808.3 2.1182
2809.8 2.1868
2811.4 2.3164
2812.9 2.4282
2814.4 2.5376
2815.9 2.6804
2817.5 2.7698
2819 2.8389
2820.5 2.9187
2822.1 2.9812
2823.6 2.9910
2825.2 2.9741
2826.7 2.9849
2828.2 2.9726
2829.8 2.9128
2831.3 2.8540
2832.9 2.8381
2834.4 2.8230
2836 2.7773
2837.5 2.7331
2839.1 2.6706
2840.6 2.5989
2842.2 2.5413
2843.7 2.4731
2845.3 2.4123
2846.9 2.3391
2848.4 2.2598
2850 2.2297
2851.6 2.2174
2853.1 2.1680
2854.7 2.0924
2856.3 2.0388
2857.9 2.0283
2859.4 1.9978
2861 1.9299
2862.6 1.8938
2864.2 1.8806
2865.8 1.8376
2867.3 1.7961
2868.9 1.7376
2870.5 1.6843
2872.1 1.7017
2873.7 1.7231
2875.3 1.6694
2876.9 1.6340
2878.5 1.6287
2880.1 1.6047
2881.7 1.5911
2883.3 1.5908
2884.9 1.5669
2886.5 1.5249
2888.1 1.5330
2889.7 1.5324
2891.3 1.5166
2892.9 1.5417
2894.6 1.5769
2896.2 1.5862
2897.8 1.5881
2899.4 1.5977
2901 1.6462
2902.7 1.7012
2904.3 1.7747
2905.9 1.8689
2907.5 1.9607
2909.2 2.0862
2910.8 2.2053
2912.4 2.3362
2914.1 2.4844
2915.7 2.6523
2917.4 2.7988
2919 2.9460
2920.7 3.1199
2922.3 3.2891
2923.9 3.4128
2925.6 3.5100
2927.2 3.5918
2928.9 3.6374
2930.6 3.7173
2932.2 3.7414
2933.9 3.7026
2935.5 3.7076
2937.2 3.6995
2938.9 3.6597
2940.5 3.5820
2942.2 3.4866
2943.9 3.4448
2945.5 3.4106
2947.2 3.2886
2948.9 3.1667
2950.6 3.0867
2952.3 3.0337
2953.9 2.9739
2955.6 2.8865
2957.3 2.7903
2959 2.7334
2960.7 2.6670
2962.4 2.6060
2964.1 2.5632
2965.8 2.5271
2967.5 2.4910
2969.2 2.4451
2970.9 2.4160
2972.6 2.4102
2974.3 2.3865
2976 2.3601
2977.7 2.3359
2979.4 2.3223
2981.1 2.2976
2982.8 2.2734
2984.5 2.2505
2986.3 2.2305
2988 2.2334
2989.7 2.2134
2991.4 2.1787
2993.2 2.1689
2994.9 2.1802
2996.6 2.1785
2998.4 2.1858
3000.1 2.2163
3001.8 2.2095
3003.6 2.1731
3005.3 2.1697
3007 2.1621
3008.8 2.1619
3010.5 2.1587
3012.3 2.1555
3014 2.1357
3015.8 2.1228
3017.6 2.1462
