# Soil optical properties : Light yellowish brown interior dry gravelly loam
# Colums : Wavelength(nm) Reflectance(%) Transmitance(%)
#
300 2.9020
400 2.9020
401 3.1628
402 3.2727
403 3.2619
404 3.2445
405 3.3412
406 3.3919
407 3.4011
408 3.4937
409 3.8165
410 3.5685
411 3.4548
412 3.7550
413 3.9889
414 4.0118
415 4.0232
416 4.0461
417 4.1417
418 4.1357
419 4.1357
420 4.3690
421 4.3164
422 4.3353
423 4.5167
424 4.5896
425 4.5735
426 4.8769
427 4.9687
428 5.1502
429 5.0173
430 5.1552
431 5.5122
432 5.3296
433 5.0895
434 5.4223
435 5.6146
436 5.8380
437 5.6393
438 5.8549
439 5.8549
440 6.0613
441 6.1680
442 6.2389
443 6.2299
444 6.5484
445 6.6154
446 6.8109
447 7.0207
448 7.0967
449 7.1721
450 7.2997
451 7.4942
452 7.7180
453 7.5604
454 7.8543
455 7.9262
456 7.7680
457 7.8625
458 7.8512
459 7.7894
460 7.9329
461 8.2226
462 8.2408
463 8.0864
464 8.1980
465 8.2420
466 8.4576
467 8.4576
468 8.4702
469 8.4344
470 8.6782
471 8.7252
472 8.5627
473 8.7065
474 8.7453
475 9.0419
476 9.2508
477 9.0687
478 9.3063
479 9.3063
480 9.4544
481 9.3982
482 9.5872
483 9.5302
484 9.5019
485 9.7216
486 9.8335
487 10.0610
488 10.1660
489 10.1810
490 10.3530
491 10.4220
492 10.3920
493 10.4530
494 10.6020
495 10.7070
496 10.6300
497 11.0020
498 11.3030
499 11.3760
500 11.5380
501 11.5600
502 11.5430
503 11.4000
504 11.4560
505 11.3950
506 11.9470
507 11.8790
508 11.9830
509 11.7950
510 12.3760
511 12.4630
512 12.6350
513 12.6710
514 12.8300
515 13.0070
516 13.0620
517 13.2040
518 13.4730
519 13.5220
520 13.7390
521 13.7530
522 13.7610
523 13.7220
524 13.7560
525 13.9850
526 14.0700
527 14.0460
528 14.2000
529 14.5120
530 14.6270
531 14.6960
532 14.8010
533 15.0140
534 15.3280
535 15.2820
536 15.4070
537 15.4490
538 15.9390
539 16.0850
540 16.1460
541 16.5040
542 16.5370
543 16.5970
544 16.8200
545 16.9540
546 17.0580
547 17.2020
548 17.6130
549 17.5950
550 17.7320
551 18.0060
552 18.1430
553 18.1990
554 18.5670
555 18.7250
556 18.8580
557 18.9890
558 18.9600
559 18.9840
560 19.4380
561 19.4920
562 19.9650
563 20.0680
564 20.3260
565 20.2160
566 20.7380
567 20.9710
568 21.0940
569 21.3540
570 21.4360
571 21.6430
572 21.5340
573 21.7530
574 22.0640
575 22.1660
576 22.4940
577 22.7050
578 22.6930
579 22.7990
580 23.0970
581 23.2030
582 23.5320
583 23.6550
584 23.6550
585 24.2240
586 24.5600
587 24.4470
588 24.7200
589 24.6790
590 24.6160
591 24.9490
592 25.0030
593 25.0980
594 25.2150
595 24.8960
596 25.5800
597 25.5650
598 25.5320
599 25.5750
600 25.3500
601 25.4660
602 25.8030
603 25.6550
604 25.7370
605 25.8100
606 25.9640
607 26.0360
608 25.8590
609 26.2450
610 26.0270
611 26.3880
612 26.1150
613 26.4370
614 26.4330
615 26.6050
616 26.4710
617 26.2460
618 26.6190
619 26.6510
620 26.7570
621 26.7490
622 26.5680
623 26.9880
624 26.9600
625 27.0190
626 27.2980
627 26.9210
628 26.9910
629 27.2250
630 27.4010
631 27.3940
632 27.4070
633 26.9640
634 27.4070
635 27.5410
636 27.6410
637 27.5340
638 27.0430
639 27.3400
640 27.8520
641 28.1240
642 28.1240
643 27.8890
644 27.4790
645 27.8550
646 27.6800
647 27.6140
648 27.8200
649 28.2970
650 28.3920
651 28.7100
652 28.4270
653 28.4290
654 28.6340
655 28.8060
656 28.8060
657 28.8130
658 28.6050
659 28.7710
660 28.9100
661 29.0130
662 29.0830
663 29.0120
664 29.0110
665 28.9420
666 29.2860
667 29.3920
668 29.6010
669 29.4930
670 29.3170
671 29.2150
672 29.4930
673 29.9090
674 30.1200
675 29.9430
676 29.7020
677 29.9760
678 29.9370
679 30.2140
680 29.8620
681 29.9330
682 30.0710
683 30.1070
684 30.4510
685 30.4150
686 30.4120
687 30.3760
688 30.7290
689 30.5200
690 30.3710
691 30.6200
692 31.0390
693 31.0750
694 30.9360
695 31.3480
696 31.4970
697 31.3980
698 31.3810
699 32.7110
700 31.5820
701 31.5840
702 31.2710
703 31.3560
704 31.5570
705 31.5290
706 31.8960
707 32.0710
708 32.1730
709 31.8970
710 31.8320
711 32.0340
712 31.6850
713 31.8320
714 32.0810
715 32.2850
716 32.3860
717 32.5140
718 32.2520
719 32.1780
720 31.7500
721 31.8490
722 31.9950
723 32.1680
724 32.0490
725 32.0580
726 32.0850
727 32.3680
728 32.3310
729 32.6310
730 32.8050
731 32.7560
732 32.8800
733 32.8540
734 32.8800
735 32.8800
736 33.0560
737 32.7310
738 32.7680
739 32.9300
740 33.1680
741 33.2920
742 33.3920
743 33.2810
744 33.2300
745 33.1930
746 33.2920
747 33.2550
748 33.1420
749 33.1930
750 33.2920
751 33.1550
752 33.4920
753 33.5920
754 33.6820
755 33.6820
756 33.5540
757 33.5540
758 33.4030
759 33.4650
760 33.5400
761 33.7300
762 33.8060
763 33.9830
764 33.8770
765 33.7110
766 33.9000
767 33.9610
768 33.8850
769 33.9010
770 33.9610
771 33.6650
772 33.7860
773 34.0990
774 34.1290
775 34.4840
776 34.4060
777 34.4520
778 34.1830
779 34.3580
780 34.1000
781 34.3740
782 34.6290
783 34.2990
784 34.1760
785 34.3680
786 34.2910
787 34.0780
788 34.3750
789 34.3980
790 34.4750
791 34.2830
792 34.2380
793 34.6510
794 34.5730
795 34.7900
796 34.8890
797 34.7070
798 34.3830
799 34.3830
800 34.3830
804 34.5000
808 34.5580
812 34.7650
816 34.4610
820 34.6620
824 35.0440
828 34.8180
832 35.0400
836 34.8770
840 34.7820
844 34.5800
848 34.7690
852 34.8280
856 34.8280
860 35.0390
864 34.9170
868 34.8680
872 35.0190
876 35.2050
880 35.0690
884 35.1910
888 35.3120
892 35.2260
896 35.1690
900 35.1690
904 35.3550
908 35.2690
912 35.4770
916 35.5820
920 35.7470
924 35.7400
928 35.9640
932 35.9280
936 35.8550
940 35.9640
944 36.0370
948 36.1680
952 36.3350
956 36.3520
960 36.4280
964 36.2530
968 36.6080
972 36.4600
976 36.3500
980 36.0230
984 36.1760
988 37.0410
992 36.6360
996 36.8910
1000 36.9470
1004 36.8540
1008 37.2150
1012 37.3840
1016 37.2900
1020 37.8390
1024 37.8310
1028 37.5470
1032 37.5830
1036 37.5900
1040 37.3270
1044 37.5530
1048 37.5510
1052 37.7530
1056 37.8840
1060 38.1540
1064 37.7580
1068 38.1370
1072 38.4030
1076 38.2430
1080 38.3470
1084 38.3590
1088 38.5310
1092 38.4530
1096 38.4250
1100 38.4420
1104 38.3870
1108 38.3970
1112 38.9530
1116 39.2210
1120 39.3400
1124 39.5700
1128 39.3150
1132 39.9220
1136 39.4350
1140 39.6790
1144 39.2900
1148 39.0920
1152 39.3090
1156 39.5580
1160 39.5720
1164 39.8380
1168 40.1580
1172 40.1980
1176 40.3720
1180 40.2780
1184 40.4000
1188 40.6230
1192 40.8400
1196 40.8400
1200 40.7460
1204 40.7460
1208 40.7110
1212 40.8760
1216 40.8460
1220 40.8990
1224 40.8990
1228 41.3360
1232 41.3150
1236 41.4620
1240 41.5670
1244 41.6520
1248 41.8690
1252 41.7840
1256 41.7090
1260 41.8020
1264 41.5820
1268 41.7510
1272 41.7610
1276 41.5500
1280 41.5290
1284 41.5900
1288 41.5070
1292 41.8370
1296 42.0190
1300 41.6900
1304 41.4840
1308 41.6940
1312 41.8280
1316 42.0540
1320 42.1380
1324 42.2220
1328 41.9700
1332 42.1960
1336 42.0300
1340 42.4570
1344 43.1100
1348 42.9180
1352 42.9140
1356 43.2070
1360 42.9230
1364 42.9130
1368 42.9170
1372 43.1120
1376 42.3950
1380 41.8960
1384 42.1290
1388 41.5500
1392 41.0430
1396 40.5880
1400 40.2310
1404 39.7530
1408 39.5630
1412 39.7220
1416 40.3760
1420 40.8750
1424 41.1040
1428 41.2920
1432 41.4470
1436 41.5070
1440 41.6060
1444 41.8420
1448 41.7210
1452 42.1130
1456 42.3350
1460 42.4830
1464 42.6580
1468 42.6150
1472 42.6650
1476 42.9820
1480 43.4430
1484 43.7680
1488 43.5810
1492 43.7090
1496 43.1800
1500 43.0060
1504 43.3840
1508 43.5690
1512 43.4380
1516 43.4820
1520 43.5800
1524 43.7640
1528 44.1260
1532 43.9530
1536 44.2190
1540 44.0850
1544 44.4000
1548 44.6300
1552 44.5370
1556 44.0910
1560 44.1310
1564 44.4000
1568 44.2630
1572 43.7320
1576 44.1350
1580 44.9550
1584 45.0420
1588 44.8540
1592 44.7250
1596 44.8110
1600 44.7250
1604 44.3190
1608 44.3630
1612 44.9100
1616 44.9550
1620 45.0860
1624 45.1800
1628 45.3580
1632 45.2210
1636 45.2210
1640 44.9950
1644 45.1330
1648 45.6380
1652 45.9160
1656 45.6870
1660 45.2730
1664 45.2230
1668 45.4100
1672 45.5500
1676 45.7310
1680 45.6870
1684 45.9660
1688 45.4140
1692 45.4150
1696 45.5040
1700 45.5970
1704 46.1030
1708 45.8710
1712 46.1480
1716 46.5690
1720 46.1010
1724 45.8170
1728 45.6870
1732 45.9190
1736 45.9650
1740 45.8670
1744 45.9130
1748 46.0510
1752 45.8650
1756 45.6800
1760 45.6800
1764 45.7270
1768 45.6810
1772 45.6810
1776 45.6800
1780 45.6790
1784 45.6340
1788 45.7250
1792 45.8180
1796 45.8180
1800 45.8650
1804 45.9110
1808 45.9570
1812 46.1430
1816 45.8180
1820 45.8640
1824 45.6790
1828 45.3500
1832 44.8360
1836 44.7000
1840 45.0160
1844 45.3400
1848 45.8580
1852 46.3720
1856 46.4680
1860 45.6150
1864 44.2410
1868 42.9400
1872 42.4770
1876 42.2510
1880 41.5100
1884 40.7420
1888 39.6080
1892 38.2800
1896 37.5530
1900 36.2850
1904 35.4110
1908 35.2560
1912 35.3330
1916 35.2940
1920 35.8380
1924 36.5760
1928 37.3840
1932 38.0610
1936 38.9090
1940 39.0940
1944 39.3930
1948 39.7880
1952 40.0320
1956 40.0430
1960 40.2330
1964 40.5610
1968 41.4100
1972 41.6880
1976 41.8270
1980 42.1070
1984 42.3360
1988 42.5280
1992 42.5900
1996 42.8740
2000 43.0250
2004 43.3480
2008 43.6310
2012 44.2080
2016 44.5900
2020 44.9710
2024 45.0160
2028 45.0180
2032 45.1610
2036 45.3050
2040 45.2580
2044 45.5960
2048 45.4010
2052 45.7890
2056 45.9350
2060 46.1790
2064 45.9840
2068 45.7900
2072 46.0340
2076 46.1310
2079.5 46.1310
2080.3 46.0970
2081.2 46.0840
2082 46.1480
2082.8 46.1400
2083.7 46.1580
2084.5 46.1680
2085.3 46.1670
2086.2 46.1720
2087 46.1730
2087.9 46.1730
2088.7 46.1710
2089.5 46.1640
2090.4 46.1570
2091.2 46.1540
2092.1 46.1620
2092.9 46.1860
2093.8 46.2240
2094.6 46.2680
2095.5 46.3060
2096.3 46.3260
2097.1 46.3210
2098 46.2890
2098.8 46.2380
2099.7 46.1790
2100.5 46.1230
2101.4 46.0790
2102.3 46.0510
2103.1 46.0400
2104 46.0430
2104.8 46.0570
2105.7 46.0780
2106.5 46.1010
2107.4 46.1200
2108.2 46.1310
2109.1 46.1290
2110 46.1160
2110.8 46.0970
2111.7 46.0770
2112.5 46.0660
2113.4 46.0690
2114.3 46.0840
2115.1 46.1080
2116 46.1310
2116.8 46.1430
2117.7 46.1390
2118.6 46.1200
2119.4 46.0910
2120.3 46.0570
2121.2 46.0290
2122 46.0080
2122.9 45.9960
2123.8 45.9890
2124.7 45.9850
2125.5 45.9810
2126.4 45.9730
2127.3 45.9650
2128.1 45.9580
2129 45.9570
2129.9 45.9630
2130.8 45.9800
2131.6 46.0050
2132.5 46.0350
2133.4 46.0650
2134.3 46.0900
2135.2 46.1080
2136 46.1180
2136.9 46.1210
2137.8 46.1210
2138.7 46.1200
2139.6 46.1170
2140.4 46.1110
2141.3 46.0980
2142.2 46.0750
2143.1 46.0420
2144 46.0000
2144.9 45.9520
2145.8 45.9040
2146.6 45.8620
2147.5 45.8300
2148.4 45.8110
2149.3 45.8040
2150.2 45.8080
2151.1 45.8180
2152 45.8280
2152.9 45.8340
2153.8 45.8290
2154.7 45.8120
2155.6 45.7820
2156.5 45.7430
2157.4 45.6980
2158.3 45.6540
2159.2 45.6160
2160.1 45.5860
2161 45.5640
2161.9 45.5470
2162.8 45.5300
2163.7 45.5130
2164.6 45.4910
2165.5 45.4650
2166.4 45.4370
2167.3 45.4090
2168.2 45.3840
2169.1 45.3630
2170 45.3490
2170.9 45.3420
2171.8 45.3400
2172.7 45.3400
2173.6 45.3370
2174.6 45.3270
2175.5 45.3070
2176.4 45.2760
2177.3 45.2330
2178.2 45.1830
2179.1 45.1320
2180 45.0830
2181 45.0370
2181.9 44.9960
2182.8 44.9570
2183.7 44.9180
2184.6 44.8750
2185.6 44.8300
2186.5 44.7810
2187.4 44.7300
2188.3 44.6780
2189.3 44.6250
2190.2 44.5700
2191.1 44.5140
2192 44.4560
2193 44.3990
2193.9 44.3450
2194.8 44.2980
2195.7 44.2570
2196.7 44.2220
2197.6 44.1870
2198.5 44.1450
2199.5 44.0880
2200.4 44.0090
2201.3 43.9050
2202.3 43.7760
2203.2 43.6270
2204.1 43.4690
2205.1 43.3120
2206 43.1730
2207 43.0630
2207.9 42.9930
2208.8 42.9640
2209.8 42.9720
2210.7 43.0050
2211.7 43.0460
2212.6 43.0790
2213.6 43.0890
2214.5 43.0690
2215.5 43.0180
2216.4 42.9420
2217.3 42.8530
2218.3 42.7670
2219.2 42.6970
2220.2 42.6550
2221.1 42.6490
2222.1 42.6800
2223.1 42.7430
2224 42.8310
2225 42.9340
2225.9 43.0410
2226.9 43.1430
2227.8 43.2330
2228.8 43.3050
2229.7 43.3560
2230.7 43.3850
2231.7 43.3920
2232.6 43.3780
2233.6 43.3460
2234.5 43.3000
2235.5 43.2450
2236.5 43.1880
2237.4 43.1330
2238.4 43.0870
2239.4 43.0530
2240.3 43.0290
2241.3 43.0140
2242.3 43.0030
2243.3 42.9900
2244.2 42.9710
2245.2 42.9450
2246.2 42.9100
2247.1 42.8710
2248.1 42.8290
2249.1 42.7860
2250.1 42.7450
2251 42.7080
2252 42.6770
2253 42.6530
2254 42.6390
2255 42.6350
2255.9 42.6400
2256.9 42.6530
2257.9 42.6720
2258.9 42.6970
2259.9 42.7270
2260.9 42.7610
2261.8 42.7960
2262.8 42.8290
2263.8 42.8580
2264.8 42.8790
2265.8 42.8910
2266.8 42.8950
2267.8 42.8910
2268.8 42.8820
2269.8 42.8680
2270.8 42.8470
2271.8 42.8220
2272.8 42.7920
2273.8 42.7600
2274.7 42.7280
2275.7 42.6960
2276.7 42.6640
2277.7 42.6280
2278.7 42.5850
2279.8 42.5300
2280.8 42.4640
2281.8 42.3910
2282.8 42.3150
2283.8 42.2410
2284.8 42.1730
2285.8 42.1100
2286.8 42.0520
2287.8 41.9970
2288.8 41.9410
2289.8 41.8860
2290.8 41.8300
2291.8 41.7740
2292.9 41.7190
2293.9 41.6650
2294.9 41.6100
2295.9 41.5550
2296.9 41.5010
2297.9 41.4500
2299 41.4040
2300 41.3630
2301 41.3240
2302 41.2840
2303 41.2390
2304.1 41.1870
2305.1 41.1290
2306.1 41.0700
2307.1 41.0140
2308.2 40.9650
2309.2 40.9230
2310.2 40.8850
2311.3 40.8470
2312.3 40.8010
2313.3 40.7440
2314.4 40.6740
2315.4 40.5910
2316.4 40.4970
2317.5 40.3970
2318.5 40.2950
2319.5 40.1980
2320.6 40.1110
2321.6 40.0370
2322.6 39.9780
2323.7 39.9280
2324.7 39.8800
2325.8 39.8260
2326.8 39.7590
2327.9 39.6760
2328.9 39.5820
2330 39.4850
2331 39.3910
2332.1 39.3080
2333.1 39.2400
2334.2 39.1840
2335.2 39.1390
2336.3 39.1030
2337.3 39.0720
2338.4 39.0480
2339.4 39.0290
2340.5 39.0130
2341.5 39.0000
2342.6 38.9870
2343.6 38.9760
2344.7 38.9660
2345.8 38.9610
2346.8 38.9630
2347.9 38.9720
2349 38.9890
2350 39.0140
2351.1 39.0450
2352.2 39.0820
2353.2 39.1250
2354.3 39.1720
2355.4 39.2190
2356.4 39.2620
2357.5 39.2950
2358.6 39.3130
2359.7 39.3160
2360.7 39.3080
2361.8 39.2940
2362.9 39.2820
2364 39.2760
2365 39.2790
2366.1 39.2900
2367.2 39.3050
2368.3 39.3180
2369.4 39.3210
2370.4 39.3100
2371.5 39.2850
2372.6 39.2480
2373.7 39.2030
2374.8 39.1580
2375.9 39.1170
2377 39.0830
2378.1 39.0560
2379.1 39.0340
2380.2 39.0160
2381.3 39.0000
2382.4 38.9840
2383.5 38.9670
2384.6 38.9500
2385.7 38.9300
2386.8 38.9060
2387.9 38.8780
2389 38.8460
2390.1 38.8110
2391.2 38.7750
2392.3 38.7370
2393.4 38.6960
2394.5 38.6510
2395.6 38.5990
2396.7 38.5430
2397.9 38.4850
2399 38.4320
2400.1 38.3890
2401.2 38.3600
2402.3 38.3440
2403.4 38.3360
2404.5 38.3270
2405.6 38.3100
2406.8 38.2780
2407.9 38.2320
2409 38.1740
2410.1 38.1140
2411.2 38.0570
2412.4 38.0080
2413.5 37.9660
2414.6 37.9290
2415.7 37.8900
2416.9 37.8460
2418 37.7950
2419.1 37.7380
2420.2 37.6810
2421.4 37.6250
2422.5 37.5730
2423.6 37.5240
2424.8 37.4750
2425.9 37.4200
2427 37.3580
2428.2 37.2890
2429.3 37.2140
2430.5 37.1380
2431.6 37.0670
2432.7 37.0030
2433.9 36.9480
2435 36.9000
2436.2 36.8560
2437.3 36.8120
2438.5 36.7680
2439.6 36.7210
2440.8 36.6720
2441.9 36.6220
2443.1 36.5740
2444.2 36.5280
2445.4 36.4840
2446.5 36.4440
2447.7 36.4070
2448.8 36.3750
2450 36.3470
2451.1 36.3240
2452.3 36.3040
2453.5 36.2850
2454.6 36.2630
2455.8 36.2360
2456.9 36.2030
2458.1 36.1640
2459.3 36.1210
2460.4 36.0770
2461.6 36.0330
2462.8 35.9890
2464 35.9440
2465.1 35.8940
2466.3 35.8400
2467.5 35.7800
2468.6 35.7170
2469.8 35.6520
2471 35.5880
2472.2 35.5250
2473.4 35.4640
2474.5 35.4010
2475.7 35.3370
2476.9 35.2690
2478.1 35.1960
2479.3 35.1200
2480.5 35.0430
2481.6 34.9700
2482.8 34.9010
2484 34.8390
2485.2 34.7810
2486.4 34.7270
2487.6 34.6720
2488.8 34.6170
2490 34.5600
2491.2 34.5030
2492.4 34.4480
2493.6 34.3960
2494.8 34.3470
2496 34.2990
2497.2 34.2520
2498.4 34.2030
2499.6 34.1540
2500.8 34.1040
2502 34.0550
2503.2 34.0070
2504.4 33.9620
2505.6 33.9210
2506.8 33.8820
2508.1 33.8440
2509.3 33.8070
2510.5 33.7670
2511.7 33.7230
2512.9 33.6750
2514.1 33.6230
2515.4 33.5680
2516.6 33.5150
2517.8 33.4650
2519 33.4200
2520.2 33.3780
2521.5 33.3370
2522.7 33.2920
2523.9 33.2420
2525.2 33.1820
2526.4 33.1130
2527.6 33.0350
2528.9 32.9530
2530.1 32.8730
2531.3 32.8010
2532.6 32.7410
2533.8 32.6980
2535 32.6700
2536.3 32.6530
2537.5 32.6410
2538.8 32.6300
2540 32.6170
2541.3 32.6030
2542.5 32.5920
2543.7 32.5860
2545 32.5880
2546.2 32.6010
2547.5 32.6290
2548.7 32.6740
2550 32.7390
2551.3 32.8200
2552.5 32.9030
2553.8 32.9670
2555 32.9840
2556.3 32.9360
2557.5 32.8210
2558.8 32.6610
2560.1 32.4950
2561.3 32.3660
2562.6 32.3060
2563.9 32.3210
2565.1 32.3940
2566.4 32.4880
2567.7 32.5640
2569 32.6000
2570.2 32.5950
2571.5 32.5650
2572.8 32.5340
2574.1 32.5170
2575.3 32.5130
2576.6 32.5050
2577.9 32.4720
2579.2 32.4060
2580.5 32.3130
2581.7 32.2210
2583 32.1570
2584.3 32.1350
2585.6 32.1410
2586.9 32.1370
2588.2 32.0750
2589.5 31.9290
2590.8 31.7120
2592.1 31.4780
2593.4 31.3020
2594.7 31.2470
2596 31.3320
2597.3 31.5190
2598.6 31.7300
2599.9 31.8810
2601.2 31.9180
2602.5 31.8450
2603.8 31.7120
2605.1 31.5940
2606.4 31.5530
2607.7 31.6030
2609 31.7130
2610.3 31.8200
2611.7 31.8610
2613 31.8010
2614.3 31.6530
2615.6 31.4650
2616.9 31.2990
2618.3 31.2050
2619.6 31.1920
2620.9 31.2340
2622.2 31.2790
2623.6 31.2730
2624.9 31.1850
2626.2 31.0250
2627.5 30.8340
2628.9 30.6690
2630.2 30.5830
2631.5 30.6000
2632.9 30.7090
2634.2 30.8720
2635.6 31.0330
2636.9 31.1450
2638.2 31.1760
2639.6 31.1220
2640.9 30.9960
2642.3 30.8240
2643.6 30.6290
2645 30.4270
2646.3 30.2250
2647.7 30.0240
2649 29.8230
2650.4 29.6270
2651.7 29.4410
2653.1 29.2700
2654.5 29.1100
2655.8 28.9440
2657.2 28.7420
2658.5 28.4710
2659.9 28.1050
2661.3 27.6420
2662.6 27.1060
2664 26.5440
2665.4 26.0150
2666.7 25.5670
2668.1 25.2250
2669.5 24.9810
2670.9 24.8020
2672.2 24.6390
2673.6 24.4480
2675 24.2020
2676.4 23.8950
2677.8 23.5320
2679.1 23.1260
2680.5 22.6800
2681.9 22.1840
2683.3 21.6170
2684.7 20.9520
2686.1 20.1700
2687.5 19.2640
2688.9 18.2430
2690.3 17.1330
2691.7 15.9700
2693.1 14.7940
2694.5 13.6390
2695.9 12.5340
2697.3 11.4980
2698.7 10.5490
2700.1 9.7011
2701.5 8.9709
2702.9 8.3738
2704.3 7.9214
2705.7 7.6159
2707.1 7.4458
2708.5 7.3847
2710 7.3938
2711.4 7.4275
2712.8 7.4402
2714.2 7.3962
2715.6 7.2759
2717.1 7.0786
2718.5 6.8210
2719.9 6.5329
2721.3 6.2461
2722.8 5.9861
2724.2 5.7659
2725.6 5.5835
2727.1 5.4245
2728.5 5.2700
2729.9 5.1042
2731.4 4.9189
2732.8 4.7173
2734.3 4.5105
2735.7 4.3140
2737.1 4.1418
2738.6 4.0024
2740 3.8957
2741.5 3.8152
2742.9 3.7473
2744.4 3.6794
2745.8 3.6006
2747.3 3.5049
2748.8 3.3943
2750.2 3.2734
2751.7 3.1509
2753.1 3.0347
2754.6 2.9297
2756.1 2.8381
2757.5 2.7607
2759 2.6973
2760.5 2.6489
2761.9 2.6184
2763.4 2.6079
2764.9 2.6201
2766.4 2.6538
2767.8 2.7041
2769.3 2.7644
2770.8 2.8259
2772.3 2.8806
2773.8 2.9226
2775.2 2.9487
2776.7 2.9587
2778.2 2.9546
2779.7 2.9385
2781.2 2.9141
2782.7 2.8855
2784.2 2.8574
2785.7 2.8340
2787.2 2.8198
2788.7 2.8176
2790.2 2.8281
2791.7 2.8501
2793.2 2.8789
2794.7 2.9092
2796.2 2.9353
2797.7 2.9529
2799.2 2.9590
2800.7 2.9538
2802.2 2.9382
2803.8 2.9143
2805.3 2.8845
2806.8 2.8513
2808.3 2.8171
2809.8 2.7847
2811.4 2.7563
2812.9 2.7351
2814.4 2.7224
2815.9 2.7183
2817.5 2.7224
2819 2.7322
2820.5 2.7451
2822.1 2.7593
2823.6 2.7742
2825.2 2.7900
2826.7 2.8093
2828.2 2.8335
2829.8 2.8633
2831.3 2.8992
2832.9 2.9394
2834.4 2.9817
2836 3.0244
2837.5 3.0657
2839.1 3.1052
2840.6 3.1423
2842.2 3.1775
2843.7 3.2097
2845.3 3.2383
2846.9 3.2622
2848.4 3.2808
2850 3.2947
2851.6 3.3054
2853.1 3.3152
2854.7 3.3276
2856.3 3.3445
2857.9 3.3660
2859.4 3.3911
2861 3.4165
2862.6 3.4387
2864.2 3.4546
2865.8 3.4629
2867.3 3.4639
2868.9 3.4597
2870.5 3.4534
2872.1 3.4463
2873.7 3.4399
2875.3 3.4333
2876.9 3.4267
2878.5 3.4184
2880.1 3.4089
2881.7 3.3987
2883.3 3.3894
2884.9 3.3823
2886.5 3.3769
2888.1 3.3733
2889.7 3.3694
2891.3 3.3633
2892.9 3.3555
2894.6 3.3455
2896.2 3.3354
2897.8 3.3269
2899.4 3.3220
2901 3.3203
2902.7 3.3210
2904.3 3.3227
2905.9 3.3232
2907.5 3.3205
2909.2 3.3147
2910.8 3.3059
2912.4 3.2954
2914.1 3.2854
2915.7 3.2776
2917.4 3.2729
2919 3.2715
2920.7 3.2712
2922.3 3.2698
2923.9 3.2644
2925.6 3.2532
2927.2 3.2361
2928.9 3.2151
2930.6 3.1941
2932.2 3.1782
2933.9 3.1704
2935.5 3.1726
2937.2 3.1829
2938.9 3.1975
2940.5 3.2119
2942.2 3.2214
2943.9 3.2244
2945.5 3.2207
2947.2 3.2131
2948.9 3.2048
2950.6 3.1985
2952.3 3.1965
2953.9 3.1992
2955.6 3.2060
2957.3 3.2163
2959 3.2283
2960.7 3.2410
2962.4 3.2544
2964.1 3.2690
2965.8 3.2854
2967.5 3.3035
2969.2 3.3235
2970.9 3.3440
2972.6 3.3633
2974.3 3.3804
2976 3.3938
2977.7 3.4033
2979.4 3.4101
2981.1 3.4163
2982.8 3.4224
2984.5 3.4297
