# Soil optical properties :Very pale brown to brownish yellow interior dry gravelly silt loam
# Colums : Wavelength(nm) Reflectance(%) Transmitance(%)
#
300 0.6456
400 0.6456
401 0.8143
402 0.9242
403 0.9133
404 0.8822
405 1.1795
406 1.4909
407 1.5080
408 1.5770
409 1.8802
410 1.6245
411 1.7326
412 1.7879
413 2.2381
414 2.2772
415 2.2968
416 2.3363
417 2.4153
418 2.5140
419 2.6227
420 2.7515
421 3.0671
422 3.0999
423 3.1439
424 3.2941
425 3.2734
426 3.6275
427 3.9196
428 3.9681
429 4.0431
430 4.3097
431 4.6667
432 4.4489
433 4.4150
434 4.6397
435 4.8068
436 4.9276
437 5.2777
438 5.2777
439 5.2777
440 5.7963
441 6.0048
442 6.0531
443 6.2521
444 6.5647
445 6.6732
446 6.7494
447 7.0547
448 7.1131
449 7.0645
450 7.3102
451 7.6998
452 7.8233
453 7.9096
454 8.0781
455 8.0255
456 7.8436
457 7.8265
458 8.1264
459 8.0344
460 8.3512
461 8.7218
462 8.7527
463 8.6786
464 8.8959
465 8.8024
466 9.1231
467 8.9129
468 9.1422
469 9.3571
470 9.6145
471 9.5221
472 9.4384
473 9.4968
474 9.6612
475 10.0500
476 10.3570
477 9.9846
478 10.3350
479 10.4410
480 10.6100
481 10.7370
482 10.8060
483 10.8260
484 10.8890
485 11.1660
486 11.3840
487 11.4620
488 11.5670
489 11.5900
490 11.8960
491 12.0560
492 12.0110
493 12.2070
494 12.3260
495 12.3260
496 12.3160
497 12.9210
498 13.3160
499 13.5860
500 13.6170
501 13.6000
502 13.7850
503 13.8360
504 13.8670
505 13.8310
506 14.1810
507 14.1850
508 14.1850
509 14.4770
510 15.1880
511 15.2660
512 15.2130
513 15.4740
514 15.5540
515 16.0810
516 16.2140
517 16.3740
518 16.5130
519 16.7460
520 16.9630
521 17.2470
522 17.1040
523 17.3600
524 17.7260
525 17.8590
526 17.8300
527 17.9010
528 18.1300
529 18.2340
530 18.5120
531 18.8750
532 18.9790
533 19.2970
534 19.6110
535 19.5440
536 19.6790
537 20.4230
538 20.6310
539 20.8490
540 21.0990
541 21.5290
542 21.4250
543 21.4630
544 22.1110
545 22.2590
546 22.4670
547 22.8900
548 23.1390
549 23.3740
550 23.6840
551 23.9930
552 24.3010
553 24.5400
554 24.8840
555 25.1210
556 25.4220
557 25.4150
558 25.8320
559 25.3560
560 26.0360
561 26.4780
562 27.0290
563 27.2360
564 27.4670
565 27.6670
566 28.1890
567 28.5380
568 28.5720
569 29.0660
570 29.4990
571 29.7070
572 29.6450
573 30.0820
574 30.5980
575 30.5480
576 30.8760
577 31.1920
578 31.0750
579 31.2860
580 31.9460
581 32.0520
582 32.7620
583 32.6250
584 32.9450
585 33.9690
586 33.9770
587 33.7530
588 34.2120
589 34.0450
590 34.2690
591 34.7720
592 34.5330
593 34.8890
594 34.9580
595 34.5900
596 35.5590
597 35.4370
598 35.7090
599 35.7180
600 35.8020
601 35.8680
602 36.0500
603 36.2010
604 36.2160
605 36.4820
606 36.7070
607 36.7620
608 36.6560
609 37.0750
610 36.7530
611 36.9760
612 36.8780
613 36.8390
614 36.8350
615 37.1440
616 36.8410
617 36.6050
618 36.7020
619 36.9560
620 37.2670
621 37.3080
622 37.2470
623 37.7700
624 37.7790
625 37.6650
626 37.9770
627 37.9290
628 37.8800
629 38.0770
630 38.2870
631 38.2800
632 38.2960
633 37.8880
634 38.5010
635 38.7020
636 38.8540
637 38.4900
638 37.7500
639 38.1460
640 38.9620
641 39.2160
642 39.4230
643 39.1200
644 38.7610
645 39.1710
646 39.2170
647 39.1170
648 39.4770
649 39.4240
650 39.4150
651 39.7330
652 39.8290
653 39.5750
654 39.8300
655 40.0870
656 40.4500
657 40.4570
658 40.3500
659 40.4480
660 40.5540
661 40.5540
662 40.7620
663 40.5000
664 40.4470
665 40.4460
666 40.9630
667 41.3280
668 41.4880
669 41.0660
670 40.7020
671 40.8040
672 41.1700
673 41.5350
674 42.0070
675 41.8930
676 41.9490
677 41.7920
678 41.6810
679 41.7880
680 41.6210
681 42.0350
682 41.9860
683 42.5530
684 42.5040
685 42.4500
686 42.5500
687 42.3940
688 42.8190
689 42.8160
690 42.6420
691 42.6560
692 42.8190
693 42.9760
694 43.3340
695 43.7460
696 44.0720
697 44.1330
698 44.1060
699 44.1050
700 44.1530
701 44.6630
702 44.5980
703 43.8650
704 43.9650
705 44.6790
706 44.8260
707 44.8360
708 45.0390
709 44.7260
710 44.6790
711 44.6790
712 44.8620
713 44.8810
714 45.0020
715 45.2070
716 45.7140
717 45.6010
718 44.8070
719 44.6970
720 44.2090
721 44.5060
722 44.8240
723 45.3340
724 45.2030
725 45.0690
726 44.9600
727 45.2340
728 45.3780
729 45.3780
730 45.4890
731 45.3680
732 45.8010
733 46.0130
734 45.8010
735 46.0010
736 46.1140
737 45.6780
738 45.8340
739 45.8780
740 46.2340
741 46.3210
742 46.6200
743 46.6030
744 46.1780
745 45.9220
746 46.2220
747 46.2650
748 45.8990
749 46.1220
750 46.4210
751 45.9670
752 46.1220
753 46.4210
754 46.9040
755 46.7030
756 46.3650
757 46.3650
758 46.4410
759 46.5830
760 46.4960
761 46.7770
762 46.7900
763 47.0040
764 46.4530
765 46.2620
766 46.5400
767 46.6820
768 46.4720
769 46.3430
770 46.4840
771 46.3860
772 46.6700
773 46.8380
774 47.1770
775 47.4050
776 46.8900
777 47.0630
778 46.7690
779 46.8810
780 46.7400
781 47.0500
782 47.2770
783 46.8390
784 47.1500
785 47.0340
786 46.8210
787 46.3550
788 46.8520
789 46.9390
790 46.9510
791 46.6720
792 46.8950
793 47.2630
794 47.2490
795 47.4200
796 47.3200
797 47.1900
798 46.9030
799 46.9030
800 46.9030
804 47.4950
808 47.2560
812 46.5330
816 46.9190
820 47.4530
824 47.8800
828 47.7310
832 47.7800
836 47.6780
840 47.7720
844 47.2340
848 47.8960
852 47.8420
856 47.6540
860 47.9240
864 47.7930
868 47.5820
872 47.7160
876 47.8090
880 47.6980
884 48.0240
888 47.8320
892 47.7560
896 47.8080
900 47.9000
904 47.9000
908 47.8150
912 48.3090
916 47.9600
920 47.9720
924 48.1510
928 48.3820
932 48.6080
936 48.2230
940 48.6620
944 48.6750
948 48.7290
952 48.6490
956 48.9980
960 48.5550
964 48.3790
968 49.0490
972 48.7410
976 48.6740
980 48.3840
984 48.3460
988 49.6610
992 49.3340
996 49.7160
1000 49.7550
1004 49.6610
1008 49.9540
1012 50.3460
1016 50.4410
1020 50.9240
1024 50.8290
1028 50.4580
1032 50.4250
1036 51.0820
1040 51.2500
1044 51.2150
1048 51.0310
1052 50.8160
1056 50.7780
1060 51.0820
1064 51.1970
1068 51.3820
1072 51.4940
1076 51.0770
1080 51.6450
1084 52.0920
1088 52.3010
1092 52.0920
1096 51.8280
1100 51.7160
1104 51.6790
1108 52.2440
1112 52.6100
1116 53.1030
1120 53.1830
1124 53.5260
1128 53.1980
1132 53.7610
1136 53.3720
1140 53.2190
1144 52.9300
1148 53.0180
1152 52.9750
1156 53.0770
1160 53.2420
1164 53.5440
1168 53.8810
1172 54.0330
1176 54.0560
1180 53.9620
1184 54.1380
1188 54.3790
1192 54.5560
1196 54.6500
1200 54.6500
1204 54.5560
1208 54.3730
1212 54.6100
1216 54.2440
1220 54.0910
1224 54.3730
1228 54.8230
1232 54.7790
1236 54.9080
1240 54.7880
1244 54.6240
1248 54.8940
1252 54.7740
1256 54.4400
1260 54.4990
1264 54.3560
1268 54.6890
1272 54.5690
1276 54.5550
1280 54.7270
1284 54.8300
1288 54.9910
1292 55.1180
1296 55.1720
1300 54.6480
1304 54.4490
1308 54.8600
1312 54.9190
1316 54.7930
1320 54.8180
1324 54.7510
1328 54.3080
1332 54.3660
1336 54.1950
1340 53.2230
1344 53.2960
1348 53.4000
1352 53.7560
1356 53.1930
1360 53.7440
1364 53.1970
1368 53.7600
1372 53.2680
1376 53.8080
1380 53.1020
1384 53.2560
1388 52.7090
1392 51.9640
1396 51.4930
1400 50.2190
1404 49.4490
1408 48.7830
1412 48.9010
1416 49.1810
1420 49.8140
1424 50.1510
1428 50.2450
1432 50.1720
1436 50.0050
1440 50.1440
1444 50.7390
1448 50.8820
1452 51.5950
1456 52.0460
1460 52.2090
1464 52.3830
1468 52.3260
1472 52.3620
1476 52.6930
1480 52.8090
1484 52.9610
1488 53.1770
1492 53.4410
1496 52.8340
1500 53.4380
1504 54.1860
1508 54.2780
1512 54.0100
1516 53.8840
1520 53.6750
1524 53.4900
1528 53.6680
1532 54.0200
1536 54.5910
1540 54.8420
1544 54.9870
1548 55.4160
1552 55.6010
1556 55.5850
1560 56.0400
1564 56.0040
1568 55.8510
1572 55.3470
1576 55.5520
1580 55.7270
1584 55.7820
1588 56.5540
1592 56.2210
1596 56.0290
1600 55.9440
1604 55.5520
1608 55.6120
1612 55.9440
1616 56.2820
1620 56.6130
1624 56.7710
1628 56.7950
1632 56.3320
1636 56.3320
1640 56.3990
1644 56.6450
1648 57.3220
1652 57.7250
1656 57.0450
1660 56.7690
1664 57.0450
1668 56.5520
1672 56.5840
1676 57.2290
1680 56.9520
1684 56.8920
1688 57.1390
1692 56.9250
1696 56.7080
1700 56.8000
1704 57.4150
1708 57.1680
1712 57.0730
1716 57.1960
1720 56.8840
1724 56.3230
1728 55.7470
1732 55.8720
1736 55.6270
1740 55.4080
1744 55.4680
1748 55.7130
1752 55.8330
1756 56.0190
1760 55.8330
1764 55.9580
1768 55.9900
1772 55.9900
1776 56.0190
1780 55.9540
1784 55.6800
1788 56.2010
1792 56.2940
1796 56.6650
1800 56.2970
1804 56.4790
1808 56.5410
1812 56.8830
1816 56.6650
1820 56.4180
1824 56.3260
1828 56.0720
1832 55.2930
1836 55.0200
1840 55.1940
1844 55.5620
1848 56.1840
1852 56.4540
1856 56.5450
1860 55.3760
1864 53.1440
1868 51.1690
1872 50.3040
1876 49.6910
1880 48.5510
1884 47.0790
1888 45.4810
1892 43.2780
1896 41.3380
1900 39.1650
1904 37.4190
1908 36.3970
1912 36.0010
1916 36.0540
1920 36.6880
1924 37.4190
1928 37.7180
1932 38.3940
1936 39.2110
1940 39.5570
1944 40.3220
1948 40.9890
1952 41.7030
1956 42.1760
1960 42.6520
1964 43.0830
1968 43.6610
1972 44.3380
1976 45.2510
1980 46.0280
1984 47.1500
1988 48.0150
1992 48.5240
1996 49.5750
2000 50.0010
2004 50.9370
2008 51.8230
2012 52.3040
2016 53.0020
2020 53.2440
2024 53.5240
2028 53.4980
2032 53.7790
2036 54.2290
2040 54.6530
2044 54.7430
2048 54.4510
2052 54.6030
2056 54.7630
2060 55.2460
2064 54.7000
2068 54.3530
2072 54.2910
2076 54.8610
2079.5 54.8610
2080.3 54.8930
2081.2 55.0180
2082 55.3130
2082.8 55.1180
2083.7 55.0630
2084.5 54.9560
2085.3 54.8400
2086.2 54.8000
2087 54.7760
2087.9 54.7790
2088.7 54.7910
2089.5 54.7900
2090.4 54.7780
2091.2 54.7540
2092.1 54.7260
2092.9 54.7020
2093.8 54.6870
2094.6 54.6810
2095.5 54.6810
2096.3 54.6840
2097.1 54.6890
2098 54.6930
2098.8 54.6960
2099.7 54.6960
2100.5 54.6920
2101.4 54.6830
2102.3 54.6680
2103.1 54.6460
2104 54.6190
2104.8 54.5890
2105.7 54.5570
2106.5 54.5270
2107.4 54.4990
2108.2 54.4760
2109.1 54.4550
2110 54.4380
2110.8 54.4230
2111.7 54.4070
2112.5 54.3930
2113.4 54.3790
2114.3 54.3640
2115.1 54.3490
2116 54.3320
2116.8 54.3110
2117.7 54.2860
2118.6 54.2580
2119.4 54.2290
2120.3 54.2040
2121.2 54.1870
2122 54.1800
2122.9 54.1830
2123.8 54.1940
2124.7 54.2090
2125.5 54.2230
2126.4 54.2320
2127.3 54.2300
2128.1 54.2130
2129 54.1810
2129.9 54.1350
2130.8 54.0810
2131.6 54.0270
2132.5 53.9820
2133.4 53.9530
2134.3 53.9430
2135.2 53.9490
2136 53.9630
2136.9 53.9720
2137.8 53.9670
2138.7 53.9390
2139.6 53.8840
2140.4 53.8080
2141.3 53.7220
2142.2 53.6380
2143.1 53.5690
2144 53.5190
2144.9 53.4860
2145.8 53.4630
2146.6 53.4370
2147.5 53.3990
2148.4 53.3470
2149.3 53.2830
2150.2 53.2150
2151.1 53.1480
2152 53.0900
2152.9 53.0370
2153.8 52.9870
2154.7 52.9330
2155.6 52.8710
2156.5 52.7960
2157.4 52.7080
2158.3 52.6110
2159.2 52.5100
2160.1 52.4110
2161 52.3230
2161.9 52.2520
2162.8 52.2010
2163.7 52.1670
2164.6 52.1450
2165.5 52.1270
2166.4 52.1030
2167.3 52.0690
2168.2 52.0220
2169.1 51.9690
2170 51.9150
2170.9 51.8690
2171.8 51.8360
2172.7 51.8140
2173.6 51.8000
2174.6 51.7850
2175.5 51.7630
2176.4 51.7310
2177.3 51.6900
2178.2 51.6440
2179.1 51.5970
2180 51.5520
2181 51.5080
2181.9 51.4640
2182.8 51.4170
2183.7 51.3660
2184.6 51.3110
2185.6 51.2550
2186.5 51.1990
2187.4 51.1430
2188.3 51.0860
2189.3 51.0270
2190.2 50.9630
2191.1 50.8950
2192 50.8240
2193 50.7520
2193.9 50.6800
2194.8 50.6070
2195.7 50.5320
2196.7 50.4500
2197.6 50.3590
2198.5 50.2540
2199.5 50.1320
2200.4 49.9920
2201.3 49.8280
2202.3 49.6410
2203.2 49.4310
2204.1 49.2020
2205.1 48.9670
2206 48.7440
2207 48.5520
2207.9 48.4120
2208.8 48.3410
2209.8 48.3410
2210.7 48.4080
2211.7 48.5260
2212.6 48.6710
2213.6 48.8190
2214.5 48.9480
2215.5 49.0450
2216.4 49.1060
2217.3 49.1340
2218.3 49.1390
2219.2 49.1350
2220.2 49.1360
2221.1 49.1530
2222.1 49.1920
2223.1 49.2560
2224 49.3420
2225 49.4400
2225.9 49.5430
2226.9 49.6390
2227.8 49.7210
2228.8 49.7850
2229.7 49.8300
2230.7 49.8580
2231.7 49.8730
2232.6 49.8820
2233.6 49.8900
2234.5 49.9020
2235.5 49.9170
2236.5 49.9330
2237.4 49.9460
2238.4 49.9490
2239.4 49.9400
2240.3 49.9210
2241.3 49.8990
2242.3 49.8810
2243.3 49.8730
2244.2 49.8780
2245.2 49.8910
2246.2 49.9040
2247.1 49.9080
2248.1 49.8950
2249.1 49.8650
2250.1 49.8210
2251 49.7690
2252 49.7190
2253 49.6770
2254 49.6480
2255 49.6330
2255.9 49.6310
2256.9 49.6390
2257.9 49.6530
2258.9 49.6680
2259.9 49.6820
2260.9 49.6940
2261.8 49.7030
2262.8 49.7110
2263.8 49.7200
2264.8 49.7270
2265.8 49.7320
2266.8 49.7320
2267.8 49.7240
2268.8 49.7090
2269.8 49.6880
2270.8 49.6660
2271.8 49.6480
2272.8 49.6350
2273.8 49.6280
2274.7 49.6240
2275.7 49.6200
2276.7 49.6120
2277.7 49.5980
2278.7 49.5780
2279.8 49.5530
2280.8 49.5210
2281.8 49.4810
2282.8 49.4300
2283.8 49.3670
2284.8 49.2910
2285.8 49.2080
2286.8 49.1250
2287.8 49.0520
2288.8 48.9930
2289.8 48.9510
2290.8 48.9220
2291.8 48.9000
2292.9 48.8760
2293.9 48.8440
2294.9 48.8040
2295.9 48.7540
2296.9 48.7010
2297.9 48.6510
2299 48.6070
2300 48.5730
2301 48.5450
2302 48.5200
2303 48.4920
2304.1 48.4580
2305.1 48.4160
2306.1 48.3650
2307.1 48.3070
2308.2 48.2400
2309.2 48.1640
2310.2 48.0800
2311.3 47.9920
2312.3 47.9070
2313.3 47.8340
2314.4 47.7830
2315.4 47.7580
2316.4 47.7590
2317.5 47.7790
2318.5 47.8050
2319.5 47.8230
2320.6 47.8200
2321.6 47.7890
2322.6 47.7310
2323.7 47.6510
2324.7 47.5600
2325.8 47.4680
2326.8 47.3820
2327.9 47.3020
2328.9 47.2270
2330 47.1540
2331 47.0790
2332.1 47.0000
2333.1 46.9190
2334.2 46.8370
2335.2 46.7580
2336.3 46.6840
2337.3 46.6150
2338.4 46.5500
2339.4 46.4880
2340.5 46.4290
2341.5 46.3730
2342.6 46.3200
2343.6 46.2720
2344.7 46.2290
2345.8 46.1900
2346.8 46.1520
2347.9 46.1130
2349 46.0700
2350 46.0250
2351.1 45.9810
2352.2 45.9440
2353.2 45.9170
2354.3 45.9060
2355.4 45.9080
2356.4 45.9190
2357.5 45.9290
2358.6 45.9300
2359.7 45.9150
2360.7 45.8820
2361.8 45.8340
2362.9 45.7750
2364 45.7110
2365 45.6480
2366.1 45.5840
2367.2 45.5180
2368.3 45.4450
2369.4 45.3670
2370.4 45.2820
2371.5 45.1960
2372.6 45.1090
2373.7 45.0230
2374.8 44.9330
2375.9 44.8370
2377 44.7290
2378.1 44.6120
2379.1 44.4890
2380.2 44.3690
2381.3 44.2570
2382.4 44.1550
2383.5 44.0610
2384.6 43.9670
2385.7 43.8670
2386.8 43.7590
2387.9 43.6450
2389 43.5310
2390.1 43.4190
2391.2 43.3130
2392.3 43.2110
2393.4 43.1080
2394.5 43.0010
2395.6 42.8890
2396.7 42.7710
2397.9 42.6510
2399 42.5300
2400.1 42.4130
2401.2 42.2990
2402.3 42.1860
2403.4 42.0730
2404.5 41.9580
2405.6 41.8400
2406.8 41.7190
2407.9 41.5990
2409 41.4840
2410.1 41.3780
2411.2 41.2800
2412.4 41.1900
2413.5 41.1020
2414.6 41.0090
2415.7 40.9080
2416.9 40.7980
2418 40.6810
2419.1 40.5600
2420.2 40.4420
2421.4 40.3300
2422.5 40.2270
2423.6 40.1310
2424.8 40.0400
2425.9 39.9470
2427 39.8480
2428.2 39.7390
2429.3 39.6190
2430.5 39.4910
2431.6 39.3600
2432.7 39.2320
2433.9 39.1140
2435 39.0060
2436.2 38.9070
2437.3 38.8160
2438.5 38.7250
2439.6 38.6320
2440.8 38.5340
2441.9 38.4310
2443.1 38.3240
2444.2 38.2170
2445.4 38.1130
2446.5 38.0160
2447.7 37.9280
2448.8 37.8500
2450 37.7810
2451.1 37.7150
2452.3 37.6480
2453.5 37.5750
2454.6 37.4920
2455.8 37.4010
2456.9 37.3070
2458.1 37.2170
2459.3 37.1370
2460.4 37.0710
2461.6 37.0160
2462.8 36.9680
2464 36.9180
2465.1 36.8570
2466.3 36.7800
2467.5 36.6850
2468.6 36.5750
2469.8 36.4600
2471 36.3490
2472.2 36.2480
2473.4 36.1640
2474.5 36.0920
2475.7 36.0290
2476.9 35.9670
2478.1 35.9000
2479.3 35.8260
2480.5 35.7480
2481.6 35.6720
2482.8 35.6030
2484 35.5450
2485.2 35.4960
2486.4 35.4560
2487.6 35.4190
2488.8 35.3840
2490 35.3510
2491.2 35.3200
2492.4 35.2930
2493.6 35.2710
2494.8 35.2540
2496 35.2380
2497.2 35.2230
2498.4 35.2070
2499.6 35.1890
2500.8 35.1730
2502 35.1580
2503.2 35.1460
2504.4 35.1380
2505.6 35.1330
2506.8 35.1310
2508.1 35.1300
2509.3 35.1310
2510.5 35.1310
2511.7 35.1280
2512.9 35.1170
2514.1 35.0960
2515.4 35.0630
2516.6 35.0200
2517.8 34.9730
2519 34.9290
2520.2 34.8930
2521.5 34.8650
2522.7 34.8410
2523.9 34.8130
2525.2 34.7730
2526.4 34.7110
2527.6 34.6260
2528.9 34.5230
2530.1 34.4120
2531.3 34.3090
2532.6 34.2270
2533.8 34.1750
2535 34.1540
2536.3 34.1580
2537.5 34.1750
2538.8 34.1940
2540 34.2110
2541.3 34.2250
2542.5 34.2370
2543.7 34.2500
2545 34.2640
2546.2 34.2810
2547.5 34.3070
2548.7 34.3510
2550 34.4280
2551.3 34.5400
2552.5 34.6730
2553.8 34.7850
2555 34.8250
2556.3 34.7520
2557.5 34.5550
2558.8 34.2710
2560.1 33.9730
2561.3 33.7440
2562.6 33.6460
2563.9 33.6860
2565.1 33.8210
2566.4 33.9770
2567.7 34.0810
2569 34.0960
2570.2 34.0340
2571.5 33.9420
2572.8 33.8760
2574.1 33.8660
2575.3 33.9070
2576.6 33.9540
2577.9 33.9540
2579.2 33.8730
2580.5 33.7180
2581.7 33.5390
2583 33.4010
2584.3 33.3460
2585.6 33.3610
2586.9 33.3790
2588.2 33.3080
2589.5 33.0830
2590.8 32.7110
2592.1 32.2860
2593.4 31.9520
2594.7 31.8330
2596 31.9710
2597.3 32.3020
2598.6 32.6820
2599.9 32.9520
2601.2 33.0130
2602.5 32.8720
2603.8 32.6320
2605.1 32.4300
2606.4 32.3700
2607.7 32.4780
2609 32.6900
2610.3 32.8850
2611.7 32.9500
2613 32.8350
2614.3 32.5680
2615.6 32.2400
2616.9 31.9640
2618.3 31.8240
2619.6 31.8380
2620.9 31.9520
2622.2 32.0660
2623.6 32.0860
2624.9 31.9590
2626.2 31.6980
2627.5 31.3780
2628.9 31.1060
2630.2 30.9690
2631.5 31.0080
2632.9 31.2010
2634.2 31.4770
2635.6 31.7440
2636.9 31.9210
2638.2 31.9690
2639.6 31.8870
2640.9 31.7120
2642.3 31.4870
2643.6 31.2530
2645 31.0260
2646.3 30.8040
2647.7 30.5750
2649 30.3280
2650.4 30.0670
2651.7 29.8070
2653.1 29.5670
2654.5 29.3520
2655.8 29.1430
2657.2 28.8980
2658.5 28.5620
2659.9 28.0900
2661.3 27.4670
2662.6 26.7250
2664 25.9380
2665.4 25.1990
2666.7 24.5900
2668.1 24.1540
2669.5 23.8870
2670.9 23.7300
2672.2 23.6060
2673.6 23.4470
2675 23.2130
2676.4 22.8970
2677.8 22.5150
2679.1 22.0880
2680.5 21.6230
2681.9 21.1040
2683.3 20.4990
2684.7 19.7750
2686.1 18.9100
2687.5 17.9010
2688.9 16.7680
2690.3 15.5500
2691.7 14.2970
2693.1 13.0530
2694.5 11.8580
2695.9 10.7370
2697.3 9.7041
2698.7 8.7700
2700.1 7.9475
2701.5 7.2546
2702.9 6.7143
2704.3 6.3464
2705.7 6.1599
2707.1 6.1443
2708.5 6.2685
2710 6.4819
2711.4 6.7207
2712.8 6.9216
2714.2 7.0322
2715.6 7.0217
2717.1 6.8884
2718.5 6.6587
2719.9 6.3779
2721.3 6.0972
2722.8 5.8567
2724.2 5.6758
2725.6 5.5491
2727.1 5.4516
2728.5 5.3520
2729.9 5.2229
2731.4 5.0508
2732.8 4.8398
2734.3 4.6081
2735.7 4.3823
2737.1 4.1868
2738.6 4.0395
2740 3.9448
2741.5 3.8955
2742.9 3.8745
2744.4 3.8606
2745.8 3.8350
2747.3 3.7839
2748.8 3.7031
2750.2 3.5947
2751.7 3.4673
2753.1 3.3313
2754.6 3.1977
2756.1 3.0771
2757.5 2.9783
2759 2.9082
2760.5 2.8730
2761.9 2.8750
2763.4 2.9128
2764.9 2.9809
2766.4 3.0698
2767.8 3.1677
2769.3 3.2634
2770.8 3.3476
2772.3 3.4143
2773.8 3.4614
2775.2 3.4900
2776.7 3.5032
2778.2 3.5059
2779.7 3.5037
2781.2 3.5015
2782.7 3.5046
2784.2 3.5163
2785.7 3.5386
2787.2 3.5698
2788.7 3.6072
2790.2 3.6448
2791.7 3.6767
2793.2 3.6987
2794.7 3.7085
2796.2 3.7080
2797.7 3.7007
2799.2 3.6921
2800.7 3.6870
2802.2 3.6890
2803.8 3.6990
2805.3 3.7163
2806.8 3.7385
2808.3 3.7644
2809.8 3.7915
2811.4 3.8188
2812.9 3.8454
2814.4 3.8696
2815.9 3.8901
2817.5 3.9067
2819 3.9189
2820.5 3.9282
2822.1 3.9375
2823.6 3.9499
2825.2 3.9683
2826.7 3.9934
2828.2 4.0249
2829.8 4.0613
2831.3 4.1001
2832.9 4.1389
2834.4 4.1750
2836 4.2082
2837.5 4.2373
2839.1 4.2622
2840.6 4.2839
2842.2 4.3030
2843.7 4.3193
2845.3 4.3340
2846.9 4.3462
2848.4 4.3562
2850 4.3645
2851.6 4.3718
2853.1 4.3804
2854.7 4.3906
2856.3 4.4021
2857.9 4.4119
2859.4 4.4165
2861 4.4128
2862.6 4.3994
2864.2 4.3777
2865.8 4.3516
2867.3 4.3264
2868.9 4.3066
2870.5 4.2952
2872.1 4.2932
2873.7 4.2988
2875.3 4.3103
2876.9 4.3247
2878.5 4.3386
2880.1 4.3486
2881.7 4.3520
2883.3 4.3464
2884.9 4.3320
2886.5 4.3105
2888.1 4.2851
2889.7 4.2598
2891.3 4.2380
2892.9 4.2222
2894.6 4.2114
2896.2 4.2053
2897.8 4.2016
2899.4 4.1992
2901 4.1980
2902.7 4.1977
2904.3 4.1997
2905.9 4.2046
2907.5 4.2114
2909.2 4.2202
2910.8 4.2287
2912.4 4.2363
2914.1 4.2414
2915.7 4.2427
2917.4 4.2390
2919 4.2309
2920.7 4.2190
2922.3 4.2058
2923.9 4.1941
2925.6 4.1860
2927.2 4.1831
2928.9 4.1858
2930.6 4.1933
2932.2 4.2041
2933.9 4.2158
2935.5 4.2266
2937.2 4.2339
2938.9 4.2358
2940.5 4.2322
2942.2 4.2222
2943.9 4.2078
2945.5 4.1924
2947.2 4.1789
2948.9 4.1709
2950.6 4.1694
2952.3 4.1748
2953.9 4.1850
2955.6 4.1982
2957.3 4.2119
2959 4.2263
2960.7 4.2422
2962.4 4.2607
2964.1 4.2839
2965.8 4.3125
2967.5 4.3445
2969.2 4.3782
2970.9 4.4094
2972.6 4.4363
2974.3 4.4558
2976 4.4678
2977.7 4.4722
2979.4 4.4704
2981.1 4.4646
2982.8 4.4575
