# Soil optical properties : Brown to dark brown loamy sand
# Colums : Wavelength(nm) Reflectance(%) Transmitance(%)
#
300 1.4979
400 1.4979
401 1.6676
402 1.7950
403 2.3907
404 2.3907
405 2.4995
406 2.6291
407 2.4995
408 2.6216
409 2.7809
410 2.9156
411 2.9156
412 3.0738
413 3.0828
414 3.3446
415 3.3477
416 3.3382
417 3.5154
418 3.5357
419 3.8735
420 4.0191
421 4.0308
422 4.0191
423 4.2939
424 4.5652
425 4.3980
426 4.5922
427 4.7082
428 4.7814
429 4.9389
430 5.0907
431 5.2145
432 5.4063
433 5.5142
434 5.4983
435 5.8117
436 5.8403
437 5.9923
438 5.9806
439 6.3613
440 6.4772
441 6.4959
442 6.4338
443 6.6286
444 6.7371
445 6.7241
446 6.8452
447 7.0280
448 6.8321
449 7.1012
450 7.1626
451 7.1695
452 7.4531
453 7.2901
454 7.7302
455 7.4531
456 7.8780
457 7.9901
458 7.7798
459 7.7498
460 7.9717
461 7.8051
462 7.8128
463 7.8440
464 8.1430
465 8.3411
466 7.9275
467 8.1107
468 8.3575
469 8.3411
470 8.3739
471 8.9195
472 8.9195
473 9.0468
474 8.9283
475 9.0822
476 9.1726
477 9.1816
478 9.0368
479 9.1277
480 9.4082
481 9.4449
482 9.6525
483 9.6154
484 9.5969
485 9.6860
486 9.7605
487 10.3100
488 10.3198
489 10.3874
490 10.1993
491 10.4447
492 10.3060
493 10.6399
494 10.6799
495 10.8519
496 10.8620
497 10.9797
498 11.1260
499 11.2301
500 11.2832
501 11.3244
502 11.5141
503 11.7230
504 11.7445
505 11.8486
506 11.8594
507 11.9525
508 12.0998
509 12.1767
510 12.5664
511 12.4990
512 12.5327
513 12.5910
514 12.7278
515 13.1926
516 12.7966
517 12.7626
518 13.2895
519 13.1722
520 13.5940
521 13.4028
522 13.5051
523 13.8981
524 13.5597
525 13.5479
526 13.8755
527 14.3248
528 14.2875
529 14.2875
530 14.3873
531 14.3500
532 14.0407
533 14.4623
534 14.8531
535 15.0789
536 15.0012
537 15.3436
538 15.2387
539 15.2518
540 15.4234
541 15.5087
542 15.3485
543 15.4216
544 15.9936
545 15.6314
546 15.8739
547 15.9136
548 16.0788
549 16.2835
550 16.3262
551 16.3686
552 16.5341
553 16.3130
554 16.6027
555 16.4362
556 16.7395
557 17.1370
558 17.2637
559 17.7722
560 17.6847
561 17.7805
562 17.9574
563 18.1465
564 18.1169
565 18.0516
566 18.1905
567 18.3297
568 18.4690
569 18.4989
570 18.6846
571 18.5634
572 18.6905
573 18.4690
574 18.6663
575 18.7583
576 18.8179
577 19.0384
578 19.0688
579 19.3088
580 19.5771
581 19.5925
582 19.4172
583 19.2740
584 19.6891
585 19.8559
586 19.7864
587 19.7701
588 19.7052
589 19.7864
590 19.9812
591 19.8009
592 20.1849
593 20.2964
594 20.1029
595 20.3339
596 20.3129
597 20.4077
598 20.6652
599 20.8866
600 20.3864
601 20.6844
602 20.8209
603 20.7380
604 20.8306
605 21.1553
606 21.2468
607 21.2875
608 21.2067
609 21.4892
610 21.5061
611 21.6477
612 21.6477
613 21.4556
614 21.5969
615 21.4724
616 21.5463
617 21.5463
618 21.7229
619 21.4706
620 21.5709
621 21.7159
622 22.0991
623 22.3222
624 22.3768
625 22.0860
626 21.9796
627 22.0819
628 22.4290
629 22.4511
630 22.3990
631 22.5406
632 22.7716
633 22.7015
634 22.7015
635 22.8078
636 23.0139
637 23.0555
638 23.1264
639 22.9497
640 23.3554
641 23.3733
642 23.3912
643 23.3912
644 23.4432
645 23.4611
646 23.5666
647 23.5643
648 23.4575
649 23.5643
650 23.9004
651 24.2385
652 24.3621
653 24.4733
654 24.5666
655 24.3997
656 24.1837
657 24.4362
658 24.3749
659 24.3068
660 24.2165
661 24.8455
662 24.8267
663 24.9237
664 24.8941
665 25.1606
666 25.4083
667 25.1957
668 25.6091
669 25.5321
670 25.4937
671 25.3319
672 24.9708
673 25.2174
674 25.4351
675 25.5301
676 25.4921
677 25.7117
678 25.9023
679 25.5969
680 25.3510
681 25.6535
682 25.9188
683 25.9188
684 25.8339
685 26.0228
686 26.3271
687 26.4699
688 26.5286
689 26.7114
690 26.5933
691 26.5933
692 26.7167
693 26.6326
694 26.8550
695 26.9391
696 26.8948
697 27.0748
698 27.2569
699 27.7070
700 27.4844
701 26.9458
702 26.9652
703 27.2467
704 27.3453
705 27.5466
706 27.6885
707 27.7086
708 27.7502
709 27.7301
710 27.9735
711 28.1154
712 27.9741
713 28.1963
714 28.2368
715 28.1761
716 28.0753
717 27.9746
718 28.2566
719 28.6007
720 29.0163
721 28.5990
722 28.7404
723 28.6585
724 28.8819
725 28.8954
726 28.9545
727 28.9725
728 29.1133
729 28.8128
730 28.7745
731 29.2202
732 29.3660
733 29.5870
734 29.5240
735 29.2784
736 29.2784
737 29.6776
738 29.6776
739 29.7981
740 29.8401
741 29.8191
742 29.8378
743 29.4696
744 29.6101
745 29.7957
746 29.7717
747 29.7508
748 30.2517
749 30.1920
750 30.3293
751 30.3643
752 30.2488
753 30.2517
754 30.1436
755 30.6517
756 30.6517
757 30.7747
758 30.6864
759 30.6517
760 30.7209
761 30.6146
762 30.6703
763 30.9725
764 30.8192
765 31.1995
766 31.1014
767 31.3191
768 31.1681
769 30.9969
770 31.3088
771 31.3088
772 31.3088
773 31.3289
774 31.3505
775 31.6111
776 31.6012
777 31.6447
778 31.8295
779 31.7202
780 31.8501
781 31.6002
782 31.6985
783 31.8954
784 31.8076
785 31.9583
786 32.1567
787 32.1345
788 32.1963
789 32.3070
790 31.8926
791 31.9363
792 32.1001
793 32.2618
794 31.9554
795 32.2839
796 32.4476
797 32.2964
798 32.3234
799 32.3250
800 32.4391
804 32.3849
808 32.5434
812 32.9870
816 33.0064
820 32.8849
824 32.9621
828 33.2666
832 33.5918
836 33.5604
840 33.5037
844 33.6782
848 33.8100
852 34.0261
856 34.1767
860 34.0466
864 34.4449
868 34.2282
872 34.4637
876 34.6425
880 34.6080
884 34.8632
888 34.7592
892 34.7254
896 34.8656
900 34.8227
904 34.6734
908 35.0934
912 35.3031
916 35.5342
920 35.1741
924 35.4548
928 35.6565
932 35.9306
936 35.9088
940 35.9065
944 36.1875
948 36.2275
952 36.3250
956 36.3794
960 36.5874
964 36.9016
968 36.7730
972 37.0197
976 36.8212
980 37.0283
984 36.8544
988 36.7116
992 37.5804
996 37.5354
1000 37.6540
1004 37.7475
1008 37.6559
1012 37.5682
1016 37.7730
1020 38.0219
1024 38.1131
1028 38.0679
1032 37.6129
1036 38.0605
1040 38.0453
1044 38.1593
1048 38.3858
1052 38.6725
1056 38.4989
1060 38.2954
1064 38.3179
1068 38.6783
1072 39.2587
1076 39.3982
1080 38.7398
1084 38.8381
1088 39.3051
1092 39.4810
1096 39.5471
1100 39.7721
1104 40.1805
1108 40.0809
1112 40.0340
1116 39.5897
1120 40.1386
1124 40.1805
1128 40.6286
1132 40.3110
1136 40.1141
1140 40.4510
1144 40.6179
1148 40.7840
1152 40.7802
1156 40.9363
1160 40.8694
1164 41.0825
1168 41.0982
1172 41.0746
1176 41.3142
1180 41.5077
1184 41.4336
1188 41.6039
1192 41.5296
1196 41.7491
1200 41.7976
1204 41.7733
1208 41.8357
1212 41.7630
1216 42.0573
1220 41.6732
1224 41.9695
1228 41.9203
1232 41.6595
1236 41.6732
1240 41.6244
1244 41.5515
1248 41.8111
1252 42.0201
1256 42.0818
1260 42.2790
1264 42.4512
1268 42.4631
1272 42.8669
1276 43.2931
1280 43.4127
1284 43.6253
1288 43.5434
1292 43.5524
1296 43.8368
1300 43.4961
1304 43.4467
1308 43.2816
1312 43.3157
1316 43.2913
1320 43.4558
1324 43.5051
1328 43.4969
1332 43.6956
1336 43.7042
1340 43.6720
1344 43.7367
1348 43.6709
1352 43.7194
1356 43.6773
1360 43.7197
1364 43.8368
1368 43.4249
1372 43.3967
1376 43.3325
1380 43.3943
1384 43.0501
1388 42.9600
1392 42.2358
1396 42.4481
1400 42.7666
1404 42.8554
1408 42.6694
1412 42.8574
1416 43.1168
1420 43.6703
1424 43.5060
1428 43.5060
1432 43.6294
1436 43.7368
1440 43.7119
1444 43.5800
1448 43.6537
1452 43.5143
1456 43.5553
1460 43.7920
1464 43.8089
1468 43.8166
1472 43.8060
1476 43.7184
1480 43.7350
1484 43.8089
1488 44.1030
1492 44.1387
1496 44.2211
1500 44.6227
1504 45.0213
1508 45.1874
1512 45.3184
1516 44.7644
1520 44.8256
1524 44.9007
1528 44.9611
1532 45.0254
1536 44.8143
1540 44.9457
1544 44.9257
1548 44.9806
1552 45.3467
1556 45.4283
1560 45.4790
1564 45.4030
1568 45.1464
1572 44.9662
1576 44.9962
1580 45.0663
1584 45.3169
1588 45.4536
1592 45.5044
1596 45.5553
1600 45.2975
1604 45.6543
1608 45.7484
1612 45.5670
1616 45.6468
1620 45.6122
1624 45.7484
1628 45.6722
1632 45.5709
1636 45.5495
1640 45.5747
1644 45.5785
1648 45.6000
1652 45.6542
1656 45.3695
1660 45.2737
1664 45.4820
1668 45.5282
1672 45.5572
1676 45.8448
1680 45.8311
1684 45.5898
1688 45.7440
1692 45.7977
1696 45.7474
1700 46.1430
1704 46.2489
1708 46.0896
1712 46.2158
1716 46.3149
1720 46.1239
1724 46.3031
1728 46.6035
1732 46.2568
1736 46.6346
1740 46.4446
1744 46.4466
1748 46.4293
1752 46.5046
1756 46.3711
1760 46.4500
1764 46.6088
1768 46.6616
1772 46.4976
1776 46.4976
1780 46.6114
1784 46.5346
1788 46.0393
1792 46.0644
1796 46.6383
1800 46.8200
1804 46.4780
1808 46.1426
1812 46.0672
1816 45.8639
1820 46.1955
1824 46.5542
1828 46.5317
1832 46.4467
1836 46.6008
1840 46.5517
1844 46.5964
1848 46.6885
1852 46.3834
1856 46.2064
1860 45.8898
1864 45.8961
1868 45.9676
1872 45.6505
1876 45.4899
1880 45.4581
1884 45.1327
1888 44.6737
1892 44.2950
1896 43.6892
1900 43.0541
1904 42.6780
1908 42.1448
1912 42.0156
1916 42.1506
1920 42.0498
1924 42.3180
1928 42.4901
1932 42.7418
1936 42.8724
1940 42.9694
1944 43.1842
1948 43.2397
1952 43.1684
1956 43.0973
1960 43.2001
1964 43.5324
1968 43.8409
1972 43.7633
1976 44.1194
1980 44.3053
1984 44.6110
1988 44.4181
1992 44.5970
1996 45.0799
2000 45.1256
2004 45.7870
2008 45.4366
2012 45.2659
2016 45.4679
2020 45.0722
2024 45.2250
2028 45.3291
2032 44.9605
2036 45.3324
2040 45.2844
2044 45.8332
2048 45.6361
2052 45.7634
2056 45.4917
2060 45.0975
2064 45.1647
2068 45.2645
2072 45.1545
2076 45.2053
2079.5 44.8483
2080.3 44.7994
2081.2 44.7821
2082 44.8058
2082.8 44.8419
2083.7 44.7916
2084.5 44.7159
2085.3 44.7130
2086.2 44.8151
2087 44.8009
2087.9 44.7460
2088.7 44.7272
2089.5 44.7521
2090.4 44.7521
2091.2 44.6972
2092.1 44.7948
2092.9 44.9303
2093.8 44.8136
2094.6 44.7853
2095.5 44.7758
2096.3 44.7727
2097.1 44.8231
2098 44.7333
2098.8 44.7870
2099.7 44.8546
2100.5 44.8136
2101.4 44.6675
2102.3 44.7098
2103.1 44.8673
2104 44.9745
2104.8 44.9696
2105.7 44.8497
2106.5 44.8370
2107.4 44.8231
2108.2 44.7882
2109.1 44.7492
2110 44.7113
2110.8 44.7382
2111.7 44.7711
2112.5 44.7223
2113.4 44.7191
2114.3 44.6972
2115.1 44.6375
2116 44.7067
2116.8 44.7821
2117.7 44.7870
2118.6 44.7948
2119.4 44.7662
2120.3 44.7176
2121.2 44.7882
2122 44.8405
2122.9 44.8451
2123.8 44.8261
2124.7 44.6610
2125.5 44.6454
2126.4 44.7509
2127.3 44.8861
2128.1 44.7662
2129 44.7191
2129.9 44.7648
2130.8 44.6878
2131.6 44.5453
2132.5 44.6786
2133.4 44.7916
2134.3 44.7882
2135.2 44.7333
2136 44.7758
2136.9 44.7980
2137.8 44.7113
2138.7 44.6298
2139.6 44.6769
2140.4 44.6705
2141.3 44.6080
2142.2 44.4559
2143.1 44.4750
2144 44.5389
2144.9 44.6675
2145.8 44.6688
2146.6 44.5529
2147.5 44.5421
2148.4 44.4843
2149.3 44.4935
2150.2 44.4640
2151.1 44.3766
2152 44.4169
2152.9 44.4218
2153.8 44.3514
2154.7 44.3810
2155.6 44.3374
2156.5 44.2876
2157.4 44.2472
2158.3 44.2037
2159.2 44.2069
2160.1 44.1820
2161 44.1526
2161.9 44.2394
2162.8 44.2301
2163.7 44.1664
2164.6 44.1137
2165.5 44.1571
2166.4 44.1820
2167.3 44.1107
2168.2 44.0176
2169.1 43.9838
2170 43.9913
2170.9 44.0425
2171.8 44.0580
2172.7 44.0797
2173.6 44.0376
2174.6 43.9513
2175.5 43.8710
2176.4 43.8803
2177.3 43.9203
2178.2 43.9498
2179.1 43.9713
2180 43.8602
2181 43.7401
2181.9 43.8431
2182.8 43.8419
2183.7 43.7355
2184.6 43.8034
2185.6 43.7880
2186.5 43.6835
2187.4 43.6251
2188.3 43.6022
2189.3 43.5560
2190.2 43.5929
2191.1 43.5836
2192 43.5394
2193 43.5180
2193.9 43.4830
2194.8 43.4569
2195.7 43.4324
2196.7 43.4357
2197.6 43.4003
2198.5 43.3273
2199.5 43.2846
2200.4 43.2604
2201.3 43.2572
2202.3 43.2465
2203.2 43.2665
2204.1 43.2301
2205.1 43.1449
2206 43.0541
2207 43.0165
2207.9 43.0949
2208.8 43.1493
2209.8 43.1403
2210.7 43.1979
2211.7 43.3761
2212.6 43.4979
2213.6 43.6481
2214.5 43.7601
2215.5 43.7186
2216.4 43.7540
2217.3 43.9005
2218.3 43.8588
2219.2 43.8849
2220.2 44.0209
2221.1 44.0319
2222.1 44.0409
2223.1 44.0006
2224 44.0487
2225 44.0702
2225.9 44.1526
2226.9 44.1927
2227.8 44.1403
2228.8 44.1664
2229.7 44.1896
2230.7 44.1603
2231.7 44.2037
2232.6 44.2785
2233.6 44.2689
2234.5 44.2130
2235.5 44.1759
2236.5 44.2052
2237.4 44.2316
2238.4 44.2472
2239.4 44.2269
2240.3 44.2350
2241.3 44.2020
2242.3 44.1852
2243.3 44.2255
2244.2 44.1586
2245.2 44.1618
2246.2 44.1945
2247.1 44.1696
2248.1 44.1215
2249.1 44.1277
2250.1 44.1403
2251 44.0333
2252 43.9760
2253 44.1014
2254 44.1696
2255 44.1742
2255.9 44.1046
2256.9 44.0319
2257.9 44.0690
2258.9 44.1122
2259.9 43.9667
2260.9 43.9774
2261.8 44.0783
2262.8 44.0922
2263.8 44.0519
2264.8 44.0038
2265.8 43.9806
2266.8 44.0238
2267.8 44.0287
2268.8 43.9867
2269.8 43.9313
2270.8 43.8973
2271.8 43.9962
2272.8 44.0319
2273.8 44.0333
2274.7 44.0131
2275.7 43.8773
2276.7 43.8634
2277.7 43.9606
2278.7 43.9157
2279.8 43.9096
2280.8 43.9467
2281.8 43.9081
2282.8 43.8619
2283.8 43.8480
2284.8 43.8742
2285.8 43.8356
2286.8 43.8234
2287.8 43.7987
2288.8 43.8480
2289.8 43.9049
2290.8 43.8726
2291.8 43.7970
2292.9 43.7418
2293.9 43.7401
2294.9 43.7572
2295.9 43.7819
2296.9 43.7157
2297.9 43.7525
2299 43.6742
2300 43.6281
2301 43.6588
2302 43.6574
2303 43.6605
2304.1 43.6268
2305.1 43.5885
2306.1 43.5380
2307.1 43.5180
2308.2 43.5609
2309.2 43.5455
2310.2 43.5011
2311.3 43.4462
2312.3 43.4401
2313.3 43.4447
2314.4 43.4357
2315.4 43.4479
2316.4 43.4384
2317.5 43.4523
2318.5 43.4401
2319.5 43.4188
2320.6 43.4017
2321.6 43.3561
2322.6 43.3031
2323.7 43.3031
2324.7 43.3287
2325.8 43.3439
2326.8 43.3058
2327.9 43.2724
2328.9 43.3151
2330 43.2846
2331 43.2985
2332.1 43.3380
2333.1 43.2650
2334.2 43.2179
2335.2 43.2072
2336.3 43.1967
2337.3 43.1889
2338.4 43.1752
2339.4 43.1603
2340.5 43.1420
2341.5 42.9876
2342.6 42.9982
2343.6 43.1010
2344.7 43.0407
2345.8 42.9967
2346.8 42.9996
2347.9 42.9755
2349 42.9682
2350 42.9589
2351.1 42.8624
2352.2 42.8685
2353.2 42.9682
2354.3 42.9694
2355.4 42.9166
2356.4 42.9288
2357.5 42.9635
2358.6 42.9635
2359.7 42.9408
2360.7 42.9032
2361.8 42.8986
2362.9 42.9288
2364 42.9635
2365 42.9513
2366.1 42.9213
2367.2 42.9166
2368.3 42.9454
2369.4 42.9574
2370.4 42.8895
2371.5 42.7887
2372.6 42.7931
2373.7 42.7872
2374.8 42.8082
2375.9 42.7753
2377 42.7240
2378.1 42.7257
2379.1 42.7135
2380.2 42.7287
2381.3 42.7467
2382.4 42.7135
2383.5 42.6808
2384.6 42.6703
2385.7 42.6491
2386.8 42.6222
2387.9 42.6102
2389 42.6461
2390.1 42.6624
2391.2 42.6354
2392.3 42.6312
2393.4 42.6073
2394.5 42.6102
2395.6 42.6073
2396.7 42.6234
2397.9 42.6972
2399 42.6867
2400.1 42.5936
2401.2 42.5563
2402.3 42.5995
2403.4 42.5968
2404.5 42.5636
2405.6 42.5385
2406.8 42.5025
2407.9 42.5294
2409 42.5609
2410.1 42.5099
2411.2 42.4562
2412.4 42.4175
2413.5 42.3712
2414.6 42.4220
2415.7 42.3966
2416.9 42.2909
2418 42.2479
2419.1 42.2970
2420.2 42.2567
2421.4 42.2064
2422.5 42.2035
2423.6 42.1752
2424.8 42.1500
2425.9 42.1412
2427 42.0731
2428.2 42.0451
2429.3 42.0673
2430.5 41.9948
2431.6 41.9418
2432.7 41.8607
2433.9 41.8209
2435 41.7934
2436.2 41.7714
2437.3 41.7816
2438.5 41.7255
2439.6 41.6583
2440.8 41.6613
2441.9 41.6786
2443.1 41.6012
2444.2 41.5370
2445.4 41.5036
2446.5 41.5458
2447.7 41.5926
2448.8 41.5036
2450 41.4044
2451.1 41.4074
2452.3 41.4335
2453.5 41.4059
2454.6 41.4044
2455.8 41.4118
2456.9 41.3810
2458.1 41.3493
2459.3 41.3537
2460.4 41.3187
2461.6 41.2621
2462.8 41.2621
2464 41.2304
2465.1 41.2257
2466.3 41.2448
2467.5 41.1508
2468.6 41.0712
2469.8 41.1261
2471 41.1405
2472.2 41.0612
2473.4 41.0351
2474.5 41.0656
2475.7 41.0351
2476.9 41.0092
2478.1 40.9845
2479.3 40.9345
2480.5 40.9115
2481.6 40.8109
2482.8 40.7621
2484 40.8466
2485.2 40.8153
2486.4 40.7492
2487.6 40.7462
2488.8 40.7333
2490 40.6618
2491.2 40.6964
2492.4 40.7435
2493.6 40.6405
2494.8 40.5963
2496 40.6261
2497.2 40.6290
2498.4 40.6134
2499.6 40.6364
2500.8 40.6122
2502 40.5777
2503.2 40.6063
2504.4 40.6207
2505.6 40.5993
2506.8 40.5722
2508.1 40.5153
2509.3 40.4823
2510.5 40.5421
2511.7 40.4979
2512.9 40.4455
2514.1 40.4811
2515.4 40.4694
2516.6 40.4738
2517.8 40.4723
2519 40.4694
2520.2 40.4723
2521.5 40.4098
2522.7 40.3446
2523.9 40.3959
2525.2 40.4611
2526.4 40.4425
2527.6 40.4298
2528.9 40.4440
2530.1 40.3732
2531.3 40.2780
2532.6 40.2287
2533.8 40.2907
2535 40.2213
2536.3 40.2160
2537.5 40.2951
2538.8 40.2694
2540 40.3107
2541.3 40.2440
2542.5 40.0143
2543.7 40.0143
2545 40.1312
2546.2 40.1171
2547.5 40.0495
2548.7 40.0917
2550 40.0019
2551.3 39.8754
2552.5 39.8361
2553.8 40.0495
2555 40.1466
2556.3 40.1706
2557.5 40.2062
2558.8 40.0438
2560.1 39.5197
2561.3 39.1588
2562.6 39.1852
2563.9 39.2636
2565.1 39.6322
2566.4 40.0072
2567.7 39.8500
2569 39.4364
2570.2 39.5905
2571.5 39.7733
2572.8 39.1175
2574.1 39.2487
2575.3 39.5114
2576.6 39.2995
2577.9 39.5988
2579.2 39.7482
2580.5 39.3588
2581.7 39.2182
2583 38.7089
2584.3 38.7633
2585.6 39.2003
2586.9 38.9750
2588.2 39.0985
2589.5 39.3285
2590.8 39.5543
2592.1 39.2306
2593.4 37.6784
2594.7 36.5299
2596 37.7963
2597.3 39.1107
2598.6 39.5474
2599.9 39.4364
2601.2 39.1137
2602.5 38.8644
2603.8 38.3783
2605.1 37.7843
2606.4 38.2008
2607.7 38.7279
2609 38.7865
2610.3 38.9340
2611.7 39.0971
2613 38.9711
2614.3 38.9162
2615.6 38.2250
2616.9 37.8256
2618.3 38.2331
2619.6 37.7550
2620.9 37.9427
2622.2 38.8520
2623.6 38.9503
2624.9 38.5216
2626.2 37.8043
2627.5 38.0922
2628.9 37.7843
2630.2 37.0705
2631.5 37.6955
2632.9 38.0668
2634.2 38.0829
2635.6 38.3246
2636.9 38.2292
2638.2 38.1793
2639.6 38.1205
2640.9 37.8986
2642.3 37.7274
2643.6 37.6637
2645 37.3554
2646.3 37.3226
2647.7 37.4552
2649 37.3700
2650.4 37.0912
2651.7 36.6701
2653.1 36.5504
2654.5 36.5070
2655.8 36.3583
2657.2 36.3954
2658.5 36.0111
2659.9 35.7353
2661.3 35.5736
2662.6 35.3170
2664 34.2094
2665.4 33.2904
2666.7 33.1808
2668.1 33.5429
2669.5 32.4897
2670.9 32.1727
2672.2 33.0898
2673.6 32.9818
2675 32.0419
2676.4 31.1044
2677.8 30.7525
2679.1 30.3744
2680.5 30.2424
2681.9 29.5951
2683.3 28.6115
2684.7 27.6467
2686.1 26.5380
2687.5 25.2980
2688.9 23.9133
2690.3 22.4675
2691.7 20.7651
2693.1 18.7661
2694.5 17.1438
2695.9 15.8283
2697.3 14.6245
2698.7 13.4069
2700.1 12.1897
2701.5 11.1701
2702.9 10.5520
2704.3 10.2407
2705.7 10.2956
2707.1 10.5122
2708.5 10.6792
2710 10.7900
2711.4 11.0547
2712.8 11.4516
2714.2 11.5508
2715.6 11.4301
2717.1 11.1787
2718.5 10.7895
2719.9 10.2837
2721.3 10.1084
2722.8 9.8574
2724.2 9.3984
2725.6 9.2849
2727.1 9.3330
2728.5 9.2239
2729.9 9.0449
2731.4 8.8327
2732.8 8.5381
2734.3 8.2248
2735.7 8.0996
2737.1 8.0168
2738.6 7.7102
2740 7.5217
2741.5 7.5786
2742.9 7.7074
2744.4 7.7029
2745.8 7.6416
2747.3 7.5596
2748.8 7.4270
2750.2 7.3315
2751.7 7.1548
2753.1 6.9001
2754.6 6.5732
2756.1 6.4216
2757.5 6.4225
2759 6.3572
2760.5 6.2219
2761.9 6.1155
2763.4 6.3489
2764.9 6.7385
2766.4 7.0293
2767.8 7.2956
2769.3 7.4770
2770.8 7.5971
2772.3 7.7966
2773.8 7.9424
2775.2 7.9983
2776.7 8.0088
2778.2 8.0456
2779.7 8.0991
2781.2 8.0908
2782.7 8.1794
2784.2 8.2356
2785.7 8.1762
2787.2 8.1704
2788.7 8.2395
2790.2 8.3291
2791.7 8.3428
2793.2 8.3723
2794.7 8.4233
2796.2 8.3713
2797.7 8.3327
2799.2 8.3493
2800.7 8.2975
2802.2 8.2378
2803.8 8.2409
2805.3 8.2817
2806.8 8.3003
2808.3 8.2969
2809.8 8.2685
2811.4 8.2461
2812.9 8.2046
2814.4 8.1701
2815.9 8.1301
2817.5 8.0212
2819 7.9284
2820.5 7.9460
2822.1 8.0110
2823.6 7.9385
2825.2 7.7883
2826.7 7.7175
2828.2 7.6679
2829.8 7.6555
2831.3 7.5627
2832.9 7.4382
2834.4 7.3818
2836 7.3606
2837.5 7.3933
2839.1 7.4861
2840.6 7.5427
2842.2 7.4773
2843.7 7.4438
2845.3 7.4768
2846.9 7.4712
2848.4 7.4221
2850 7.4353
2851.6 7.4807
2853.1 7.4682
2854.7 7.3965
2856.3 7.3591
2857.9 7.3266
2859.4 7.3520
2861 7.3672
2862.6 7.3696
2864.2 7.3218
2865.8 7.1977
2867.3 7.1745
2868.9 7.1343
2870.5 7.0571
2872.1 7.0781
2873.7 7.0483
2875.3 6.9878
2876.9 6.9502
2878.5 6.9297
2880.1 6.8613
2881.7 6.7854
2883.3 6.7829
2884.9 6.7534
2886.5 6.7073
2888.1 6.6958
2889.7 6.6252
2891.3 6.5849
2892.9 6.5498
2894.6 6.5159
2896.2 6.5359
2897.8 6.6118
2899.4 6.6211
2901 6.5451
2902.7 6.4825
2904.3 6.5486
2905.9 6.5762
2907.5 6.5835
2909.2 6.6120
2910.8 6.6224
2912.4 6.6006
2914.1 6.5974
2915.7 6.6465
2917.4 6.6977
2919 6.6909
2920.7 6.7187
2922.3 6.7278
2923.9 6.7287
2925.6 6.7746
2927.2 6.7295
2928.9 6.7239
2930.6 6.7793
2932.2 6.7866
2933.9 6.7444
2935.5 6.7541
2937.2 6.7827
2938.9 6.7441
2940.5 6.7143
2942.2 6.7412
2943.9 6.7121
2945.5 6.6946
2947.2 6.6887
2948.9 6.6782
2950.6 6.6809
2952.3 6.6877
2953.9 6.7480
2955.6 6.7366
2957.3 6.6777
2959 6.6697
2960.7 6.6990
2962.4 6.7746
2964.1 6.8010
2965.8 6.8139
2967.5 6.8479
2969.2 6.8052
2970.9 6.8367
2972.6 6.8994
2974.3 6.9148
2976 6.9057
2977.7 6.9372
2979.4 6.9673
2981.1 6.9585
2982.8 7.0017
2984.5 7.0705
2986.3 7.0549
