# Soil optical properties : Brown fine sandy loam
# Colums : Wavelength(nm) Reflectance(%) Transmitance(%)
#
300 6.7481
400 6.7481
401 6.7562
402 7.0562
403 7.0610
404 7.0623
405 7.0603
406 7.1929
407 7.0642
408 7.5344
409 7.4049
410 7.5353
411 7.4049
412 7.5344
413 7.5740
414 7.5739
415 7.5738
416 7.7430
417 7.6129
418 7.7448
419 7.7877
420 7.7897
421 7.7887
422 8.1329
423 8.1258
424 8.4247
425 8.2501
426 8.3781
427 8.4180
428 8.4180
429 8.2963
430 8.4644
431 8.5882
432 8.7604
433 8.7619
434 8.8889
435 8.9369
436 8.9227
437 8.9156
438 8.9085
439 9.3624
440 9.3738
441 9.3624
442 9.0303
443 9.3578
444 9.7861
445 9.5234
446 9.5109
447 9.6782
448 9.9550
449 9.9522
450 9.8343
451 10.0844
452 10.0752
453 10.0813
454 10.0721
455 10.0691
456 10.5256
457 10.5363
458 10.5609
459 10.3772
460 10.5719
461 10.7277
462 10.5499
463 10.7354
464 10.8554
465 11.0102
466 11.0060
467 10.9977
468 10.8356
469 10.9977
470 10.9935
471 10.9977
472 11.0018
473 11.0102
474 11.1250
475 11.1292
476 11.1511
477 11.2694
478 11.1381
479 11.5775
480 11.5968
481 11.7238
482 11.6994
483 11.7043
484 11.8360
485 11.8013
486 11.7964
487 11.9505
488 11.9454
489 11.8062
490 11.9403
491 12.0285
492 12.1817
493 12.3450
494 12.5495
495 12.5382
496 12.4991
497 12.3665
498 12.5102
499 12.4713
500 12.4713
501 12.6032
502 12.5977
503 12.5536
504 12.4333
505 12.5427
506 12.9983
507 12.9573
508 12.9690
509 13.0948
510 13.2838
511 13.4162
512 13.3913
513 13.3603
514 13.3665
515 13.5488
516 13.5362
517 13.5552
518 13.4907
519 13.7428
520 13.9279
521 13.8952
522 13.7175
523 13.8369
524 13.9554
525 13.9489
526 13.9685
527 14.0740
528 14.1925
529 14.1925
530 14.4562
531 14.4699
532 14.4836
533 14.6650
534 14.6440
535 14.6022
536 14.7206
537 14.8743
538 14.8601
539 14.8815
540 14.9029
541 14.9928
542 15.2513
543 15.3918
544 15.3621
545 15.3177
546 15.4353
547 15.8332
548 15.8332
549 15.9197
550 15.9669
551 16.0366
552 15.9904
553 16.1057
554 16.3596
555 16.4826
556 16.6379
557 16.6460
558 16.6703
559 16.8082
560 16.8847
561 16.9605
562 17.3705
563 17.2789
564 17.7122
565 17.7122
566 17.4048
567 17.8563
568 17.9637
569 17.6034
570 17.7110
571 17.6580
572 17.9523
573 18.2241
574 18.2180
575 18.6012
576 18.7687
577 18.4209
578 18.7488
579 18.6899
580 19.0996
581 18.6647
582 18.7546
583 19.0717
584 18.7741
585 19.4159
586 19.4368
587 19.4928
588 19.3912
589 19.3606
590 19.3402
591 19.5106
592 19.5003
593 19.5678
594 19.5268
595 19.8468
596 19.8783
597 20.2659
598 20.1278
599 20.2988
600 20.6530
601 20.6916
602 20.2878
603 20.3714
604 20.3189
605 20.7130
606 20.7021
607 20.7021
608 20.6513
609 20.7975
610 20.7975
611 21.2905
612 21.0094
613 21.0094
614 21.0094
615 21.0313
616 21.1083
617 21.4268
618 21.2792
619 21.3244
620 21.4499
621 21.7915
622 21.3747
623 21.5001
624 21.4889
625 21.7915
626 21.6256
627 22.0106
628 22.1602
629 21.7852
630 21.7852
631 22.1910
632 21.8879
633 22.6036
634 22.6157
635 22.6278
636 22.6766
637 22.5323
638 22.4965
639 22.3663
640 22.1480
641 22.3623
642 22.7955
643 22.8315
644 22.8195
645 22.7596
646 22.9083
647 23.0331
648 23.2572
649 23.0939
650 23.4074
651 23.2314
652 23.2314
653 23.2314
654 23.2560
655 23.1701
656 23.0089
657 23.3829
658 23.2883
659 23.6197
660 23.7829
661 23.9596
662 23.8958
663 23.6759
664 23.6883
665 23.8814
666 23.7809
667 23.8185
668 24.0163
669 24.0516
670 24.3027
671 24.3800
672 24.4449
673 24.3284
674 24.4398
675 24.6100
676 24.6491
677 24.5986
678 24.9184
679 24.8918
680 24.9104
681 24.8085
682 25.2660
683 25.3337
684 25.3337
685 25.5428
686 25.2525
687 25.1452
688 25.3798
689 25.4767
690 25.6141
691 25.6961
692 25.7787
693 25.7649
694 25.7236
695 25.6561
696 25.9013
697 26.0251
698 26.1930
699 25.9432
700 26.1189
701 26.3489
702 26.2141
703 26.3086
704 26.2811
705 26.3890
706 26.4442
707 26.6347
708 26.6347
709 26.9440
710 26.8519
711 26.7831
712 26.9740
713 27.0251
714 27.0110
715 27.0477
716 27.0335
717 27.0195
718 27.1973
719 27.3069
720 27.4687
721 27.3826
722 27.3683
723 27.4893
724 27.5037
725 27.5325
726 27.6972
727 27.8332
728 27.8995
729 27.9770
730 28.1268
731 28.0355
732 27.9670
733 27.9960
734 28.1415
735 28.0251
736 28.2666
737 28.2961
738 28.6290
739 28.5082
740 28.6439
741 28.6888
742 28.7647
743 28.9309
744 28.7497
745 28.7505
746 28.7058
747 28.7505
748 28.6601
749 28.7505
750 29.0960
751 29.0665
752 29.1870
753 29.2923
754 29.2373
755 29.3515
756 29.5332
757 29.7121
758 29.4759
759 29.4759
760 29.4759
761 29.5217
762 29.4759
763 29.5651
764 29.5957
765 29.8198
766 29.7890
767 29.7271
768 30.0281
769 30.0126
770 30.2672
771 30.1165
772 30.1580
773 30.1424
774 30.2359
775 30.2986
776 30.2986
777 30.4183
778 30.3396
779 30.3553
780 30.4747
781 30.4905
782 30.6659
783 30.8330
784 30.9524
785 30.8245
786 30.9043
787 30.6045
788 30.6765
789 30.8513
790 30.8828
791 30.6922
792 30.7079
793 31.3648
794 31.1682
795 31.0171
796 30.8135
797 30.9857
798 31.1289
799 31.1346
800 31.4908
804 31.4597
808 31.9572
812 32.0770
816 32.0459
820 32.2772
824 32.7721
828 32.8602
832 32.9641
836 33.0288
840 33.2753
844 33.3406
848 33.4821
852 33.4512
856 33.7122
860 33.7825
864 33.9652
868 33.9698
872 34.0393
876 34.4679
880 34.5029
884 34.6206
888 34.7354
892 34.8195
896 34.9166
900 35.1712
904 35.4889
908 35.6230
912 35.7520
916 35.9537
920 36.1352
924 36.1676
928 36.4009
932 36.7526
936 36.7332
940 36.7859
944 37.1437
948 37.2252
952 37.3602
956 37.5224
960 37.9278
964 37.7365
968 38.0083
972 37.7271
976 38.1019
980 38.1273
984 38.3223
988 38.4442
992 38.7063
996 38.8221
1000 38.9334
1004 39.3602
1008 39.2853
1012 39.5948
1016 39.7096
1020 39.3291
1024 39.6746
1028 39.8277
1032 39.8346
1036 40.2313
1040 40.4455
1044 40.9065
1048 41.1945
1052 41.0370
1056 40.5755
1060 40.5562
1064 41.0174
1068 41.2475
1072 41.4058
1076 41.2278
1080 41.3749
1084 41.5700
1088 41.7877
1092 41.9377
1096 41.9550
1100 42.0095
1104 41.8575
1108 42.1918
1112 42.3596
1116 42.5473
1120 42.1290
1124 42.7226
1128 42.7958
1132 42.3777
1136 42.5637
1140 42.9008
1144 42.6123
1148 42.5901
1152 42.5394
1156 42.6471
1160 42.5984
1164 42.6603
1168 42.8411
1172 42.9513
1176 43.0919
1180 43.1726
1184 43.1929
1188 43.2334
1192 43.4260
1196 43.3555
1200 43.3964
1204 43.6942
1208 43.9593
1212 44.3578
1216 44.6895
1220 44.7414
1224 44.7255
1228 44.8295
1232 44.8564
1236 44.8059
1240 44.4065
1244 44.0293
1248 44.1200
1252 44.7374
1256 45.0883
1260 45.2705
1264 45.2958
1268 45.4772
1272 45.7022
1276 45.8982
1280 45.9450
1284 46.0241
1288 46.1808
1292 46.0488
1296 46.1605
1300 46.2267
1304 46.1831
1308 46.3910
1312 46.2814
1316 46.2814
1320 46.2377
1324 46.2595
1328 46.0083
1332 45.9017
1336 46.1086
1340 45.9710
1344 46.0876
1348 45.9779
1352 45.6721
1356 45.9034
1360 46.1905
1364 46.0592
1368 45.9211
1372 45.8554
1376 45.5372
1380 45.3826
1384 45.0407
1388 44.8155
1392 44.6485
1396 44.3042
1400 44.0833
1404 43.7728
1408 43.5040
1412 43.5863
1416 43.6879
1420 43.8229
1424 43.9459
1428 44.0696
1432 43.9715
1436 44.1525
1440 44.2616
1444 44.1164
1448 43.9778
1452 44.1375
1456 44.2608
1460 44.4679
1464 44.6141
1468 44.6811
1472 44.8320
1476 44.9409
1480 45.1471
1484 45.5181
1488 45.6256
1492 45.6688
1496 45.7120
1500 44.9505
1504 45.2396
1508 45.4767
1512 45.9469
1516 46.0539
1520 45.6298
1524 45.6574
1528 46.1892
1532 46.7454
1536 46.9638
1540 46.8068
1544 46.5520
1548 46.7237
1552 46.8015
1556 46.6096
1560 46.7020
1564 46.6370
1568 46.5938
1572 46.5722
1576 46.7851
1580 47.1919
1584 47.0197
1588 47.0634
1592 46.9786
1596 46.8698
1600 46.8460
1604 46.8677
1608 46.9088
1612 47.0428
1616 47.2048
1620 47.6390
1624 47.3763
1628 47.3790
1632 47.5108
1636 47.6611
1640 47.7230
1644 47.7785
1648 47.6463
1652 47.7343
1656 47.9066
1660 47.8243
1664 47.4349
1668 47.3695
1672 47.4590
1676 47.4131
1680 47.5587
1684 47.5766
1688 47.7214
1692 47.5945
1696 47.2945
1700 47.4171
1704 47.4820
1708 47.2945
1712 47.4423
1716 47.6422
1720 47.6104
1724 47.7054
1728 47.6104
1732 47.7080
1736 47.9421
1740 47.9759
1744 48.0200
1748 48.1085
1752 48.1480
1756 48.1318
1760 47.9694
1764 47.9863
1768 47.8539
1772 47.9759
1776 47.9707
1780 47.9319
1784 47.7346
1788 47.6911
1792 47.8174
1796 47.9049
1800 47.9707
1804 47.7956
1808 47.9877
1812 48.1637
1816 48.0536
1820 48.0699
1824 48.1580
1828 48.2582
1832 48.1531
1836 48.1980
1840 48.2371
1844 48.3760
1848 48.2967
1852 47.9001
1856 48.0919
1860 48.0421
1864 47.8755
1868 47.1613
1872 46.5807
1876 46.0035
1880 45.1254
1884 44.2143
1888 43.2676
1892 42.0593
1896 40.6793
1900 39.6405
1904 39.0405
1908 39.4323
1912 39.0409
1916 38.8266
1920 38.8980
1924 39.0230
1928 39.3595
1932 39.3925
1936 39.9490
1940 40.2653
1944 40.4916
1948 40.7852
1952 41.1639
1956 41.2493
1960 41.6933
1964 41.9946
1968 42.2445
1972 42.6950
1976 42.9502
1980 43.1600
1984 43.3270
1988 43.5131
1992 43.5963
1996 43.9264
2000 44.3370
2004 44.3604
2008 44.4628
2012 44.6081
2016 44.5517
2020 44.2927
2024 44.0896
2028 44.3514
2032 44.3106
2036 44.2768
2040 44.3585
2044 44.4368
2048 44.5367
2052 44.6608
2056 44.3416
2060 44.3805
2064 44.6247
2068 44.7682
2072 44.6863
2076 44.5239
2079.5 44.5077
2080.3 44.4733
2081.2 44.3407
2082 44.4357
2082.8 44.4276
2083.7 44.4508
2084.5 44.4653
2085.3 44.4570
2086.2 44.4767
2087 44.5252
2087.9 44.5465
2088.7 44.5779
2089.5 44.6180
2090.4 44.6173
2091.2 44.5685
2092.1 44.5649
2092.9 44.5941
2093.8 44.5934
2094.6 44.5563
2095.5 44.5336
2096.3 44.5326
2097.1 44.5336
2098 44.5525
2098.8 44.6111
2099.7 44.6432
2100.5 44.6151
2101.4 44.5455
2102.3 44.4745
2103.1 44.4575
2104 44.4788
2104.8 44.5106
2105.7 44.5480
2106.5 44.5752
2107.4 44.6027
2108.2 44.6034
2109.1 44.5877
2110 44.5797
2110.8 44.5642
2111.7 44.5702
2112.5 44.5917
2113.4 44.6008
2114.3 44.6221
2115.1 44.6343
2116 44.6607
2116.8 44.6664
2117.7 44.6482
2118.6 44.6499
2119.4 44.6307
2120.3 44.5914
2121.2 44.5826
2122 44.5891
2122.9 44.6260
2123.8 44.6295
2124.7 44.6245
2125.5 44.6353
2126.4 44.6343
2127.3 44.6489
2128.1 44.6649
2129 44.6390
2129.9 44.6276
2130.8 44.6143
2131.6 44.5931
2132.5 44.5580
2133.4 44.5400
2134.3 44.5252
2135.2 44.4805
2136 44.4496
2136.9 44.4708
2137.8 44.4934
2138.7 44.5121
2139.6 44.5496
2140.4 44.5946
2141.3 44.5685
2142.2 44.5054
2143.1 44.4673
2144 44.4259
2144.9 44.3479
2145.8 44.2913
2146.6 44.2824
2147.5 44.2507
2148.4 44.1757
2149.3 44.1361
2150.2 44.1393
2151.1 44.1570
2152 44.1692
2152.9 44.1814
2153.8 44.2003
2154.7 44.1405
2155.6 44.0347
2156.5 43.9773
2157.4 43.9371
2158.3 43.8828
2159.2 43.8522
2160.1 43.8228
2161 43.7888
2161.9 43.7510
2162.8 43.7316
2163.7 43.7351
2164.6 43.7263
2165.5 43.7026
2166.4 43.6703
2167.3 43.6232
2168.2 43.5974
2169.1 43.6000
2170 43.6227
2170.9 43.6287
2171.8 43.6084
2172.7 43.5785
2173.6 43.5304
2174.6 43.4911
2175.5 43.4839
2176.4 43.4547
2177.3 43.4129
2178.2 43.3694
2179.1 43.3124
2180 43.2595
2181 43.2234
2181.9 43.2207
2182.8 43.2284
2183.7 43.2040
2184.6 43.1541
2185.6 43.1062
2186.5 43.0516
2187.4 42.9849
2188.3 42.9176
2189.3 42.8899
2190.2 42.8775
2191.1 42.8449
2192 42.7959
2193 42.7471
2193.9 42.6839
2194.8 42.5986
2195.7 42.5171
2196.7 42.4697
2197.6 42.4312
2198.5 42.3654
2199.5 42.2656
2200.4 42.1671
2201.3 42.0790
2202.3 41.9874
2203.2 41.8958
2204.1 41.8233
2205.1 41.7457
2206 41.6836
2207 41.6441
2207.9 41.6478
2208.8 41.6959
2209.8 41.7637
2210.7 41.8696
2211.7 42.0020
2212.6 42.1248
2213.6 42.2711
2214.5 42.4343
2215.5 42.5824
2216.4 42.6779
2217.3 42.7446
2218.3 42.8179
2219.2 42.8792
2220.2 42.9124
2221.1 42.9505
2222.1 42.9981
2223.1 43.0504
2224 43.0930
2225 43.1304
2225.9 43.1621
2226.9 43.1815
2227.8 43.1808
2228.8 43.1902
2229.7 43.2141
2230.7 43.2413
2231.7 43.2463
2232.6 43.2483
2233.6 43.2658
2234.5 43.2868
2235.5 43.3096
2236.5 43.3342
2237.4 43.3577
2238.4 43.3701
2239.4 43.3610
2240.3 43.3598
2241.3 43.3639
2242.3 43.3707
2243.3 43.3914
2244.2 43.4081
2245.2 43.4382
2246.2 43.4634
2247.1 43.4577
2248.1 43.4490
2249.1 43.4193
2250.1 43.3746
2251 43.3462
2252 43.3411
2253 43.3699
2254 43.3933
2255 43.4193
2255.9 43.4786
2256.9 43.5227
2257.9 43.5289
2258.9 43.5050
2259.9 43.4789
2260.9 43.4550
2261.8 43.4270
2262.8 43.4227
2263.8 43.4313
2264.8 43.4667
2265.8 43.4957
2266.8 43.4823
2267.8 43.4674
2268.8 43.4605
2269.8 43.4442
2270.8 43.4301
2271.8 43.4375
2272.8 43.4766
2273.8 43.4863
2274.7 43.4708
2275.7 43.4741
2276.7 43.4701
2277.7 43.4459
2278.7 43.4093
2279.8 43.3794
2280.8 43.3632
2281.8 43.3488
2282.8 43.3435
2283.8 43.3488
2284.8 43.3452
2285.8 43.3413
2286.8 43.3146
2287.8 43.2804
2288.8 43.2598
2289.8 43.2568
2290.8 43.2363
2291.8 43.1940
2292.9 43.1471
2293.9 43.1193
2294.9 43.0971
2295.9 43.0798
2296.9 43.0726
2297.9 43.0761
2299 43.0639
2300 43.0322
2301 42.9909
2302 42.9760
2303 42.9767
2304.1 42.9746
2305.1 42.9525
2306.1 42.9121
2307.1 42.8729
2308.2 42.8339
2309.2 42.7810
2310.2 42.7720
2311.3 42.8023
2312.3 42.8129
2313.3 42.7837
2314.4 42.7590
2315.4 42.7374
2316.4 42.7095
2317.5 42.6786
2318.5 42.6836
2319.5 42.7117
2320.6 42.7138
2321.6 42.6920
2322.6 42.6774
2323.7 42.6417
2324.7 42.6054
2325.8 42.5879
2326.8 42.5695
2327.9 42.5350
2328.9 42.5039
2330 42.4917
2331 42.4690
2332.1 42.4194
2333.1 42.3937
2334.2 42.3977
2335.2 42.4004
2336.3 42.3932
2337.3 42.3942
2338.4 42.3893
2339.4 42.3200
2340.5 42.2190
2341.5 42.1417
2342.6 42.0864
2343.6 42.0628
2344.7 42.0809
2345.8 42.1151
2346.8 42.1415
2347.9 42.1320
2349 42.0917
2350 42.0244
2351.1 41.9553
2352.2 41.9104
2353.2 41.8933
2354.3 41.9044
2355.4 41.9506
2356.4 42.0089
2357.5 42.0303
2358.6 42.0224
2359.7 42.0109
2360.7 42.0166
2361.8 42.0209
2362.9 42.0233
2364 42.0316
2365 42.0338
2366.1 42.0149
2367.2 41.9872
2368.3 41.9575
2369.4 41.9444
2370.4 41.9312
2371.5 41.9092
2372.6 41.8718
2373.7 41.8377
2374.8 41.8259
2375.9 41.8006
2377 41.7702
2378.1 41.7330
2379.1 41.6969
2380.2 41.6630
2381.3 41.6089
2382.4 41.5730
2383.5 41.5578
2384.6 41.5402
2385.7 41.5216
2386.8 41.4979
2387.9 41.4878
2389 41.4873
2390.1 41.4768
2391.2 41.4735
2392.3 41.4758
2393.4 41.5042
2394.5 41.5261
2395.6 41.5276
2396.7 41.5257
2397.9 41.5214
2399 41.5010
2400.1 41.4768
2401.2 41.4644
2402.3 41.4726
2403.4 41.4701
2404.5 41.4395
2405.6 41.4020
2406.8 41.3644
2407.9 41.3081
2409 41.2706
2410.1 41.2560
2411.2 41.2443
2412.4 41.2283
2413.5 41.2051
2414.6 41.1735
2415.7 41.1189
2416.9 41.0469
2418 41.0060
2419.1 40.9746
2420.2 40.9105
2421.4 40.8463
2422.5 40.8041
2423.6 40.7715
2424.8 40.7258
2425.9 40.6696
2427 40.6387
2428.2 40.6078
2429.3 40.5370
2430.5 40.4602
2431.6 40.3961
2432.7 40.3550
2433.9 40.3281
2435 40.2892
2436.2 40.2456
2437.3 40.2008
2438.5 40.1499
2439.6 40.0702
2440.8 39.9710
2441.9 39.8880
2443.1 39.8331
2444.2 39.7913
2445.4 39.7642
2446.5 39.7427
2447.7 39.7305
2448.8 39.7178
2450 39.7006
2451.1 39.6709
2452.3 39.6367
2453.5 39.6096
2454.6 39.5785
2455.8 39.5142
2456.9 39.4364
2458.1 39.3805
2459.3 39.3449
2460.4 39.3150
2461.6 39.2988
2462.8 39.2926
2464 39.2689
2465.1 39.2190
2466.3 39.1541
2467.5 39.1002
2468.6 39.0663
2469.8 39.0319
2471 39.0032
2472.2 38.9848
2473.4 38.9678
2474.5 38.9322
2475.7 38.8838
2476.9 38.8278
2478.1 38.7742
2479.3 38.7057
2480.5 38.6369
2481.6 38.5957
2482.8 38.5821
2484 38.5741
2485.2 38.5691
2486.4 38.5481
2487.6 38.5177
2488.8 38.4749
2490 38.4131
2491.2 38.3653
2492.4 38.3460
2493.6 38.3428
2494.8 38.3490
2496 38.3413
2497.2 38.3148
2498.4 38.2870
2499.6 38.2615
2500.8 38.2327
2502 38.2069
2503.2 38.1870
2504.4 38.1718
2505.6 38.1521
2506.8 38.1308
2508.1 38.1198
2509.3 38.1187
2510.5 38.1172
2511.7 38.1179
2512.9 38.1148
2514.1 38.1107
2515.4 38.1055
2516.6 38.0888
2517.8 38.0607
2519 38.0131
2520.2 37.9624
2521.5 37.9243
2522.7 37.9011
2523.9 37.8954
2525.2 37.8892
2526.4 37.8767
2527.6 37.8852
2528.9 37.8964
2530.1 37.8935
2531.3 37.8839
2532.6 37.8792
2533.8 37.8590
2535 37.8272
2536.3 37.7930
2537.5 37.7659
2538.8 37.7270
2540 37.6806
2541.3 37.6365
2542.5 37.6021
2543.7 37.5784
2545 37.5744
2546.2 37.5879
2547.5 37.6162
2548.7 37.6389
2550 37.6457
2551.3 37.6461
2552.5 37.6339
2553.8 37.6145
2555 37.5854
2556.3 37.5485
2557.5 37.4970
2558.8 37.4188
2560.1 37.3050
2561.3 37.1941
2562.6 37.1241
2563.9 37.1032
2565.1 37.1049
2566.4 37.1099
2567.7 37.1109
2569 37.0924
2570.2 37.0379
2571.5 36.9666
2572.8 36.9267
2574.1 36.9212
2575.3 36.9221
2576.6 36.9290
2577.9 36.9451
2579.2 36.9224
2580.5 36.8506
2581.7 36.7632
2583 36.6905
2584.3 36.6530
2585.6 36.6354
2586.9 36.6286
2588.2 36.6154
2589.5 36.5297
2590.8 36.3617
2592.1 36.1675
2593.4 36.0218
2594.7 35.9787
2596 36.0253
2597.3 36.1531
2598.6 36.2989
2599.9 36.3769
2601.2 36.3390
2602.5 36.2110
2603.8 36.0758
2605.1 35.9868
2606.4 35.9584
2607.7 35.9893
2609 36.0371
2610.3 36.0746
2611.7 36.0522
2613 35.9522
2614.3 35.8258
2615.6 35.7005
2616.9 35.5961
2618.3 35.5330
2619.6 35.5287
2620.9 35.5646
2622.2 35.5779
2623.6 35.5482
2624.9 35.4689
2626.2 35.3172
2627.5 35.1348
2628.9 34.9817
2630.2 34.8833
2631.5 34.8472
2632.9 34.8463
2634.2 34.8673
2635.6 34.8760
2636.9 34.8482
2638.2 34.7946
2639.6 34.7061
2640.9 34.5723
2642.3 34.4168
2643.6 34.2400
2645 34.0603
2646.3 33.8838
2647.7 33.7065
2649 33.5318
2650.4 33.3531
2651.7 33.1619
2653.1 32.9595
2654.5 32.7461
2655.8 32.5423
2657.2 32.3290
2658.5 32.0907
2659.9 31.7996
2661.3 31.4438
2662.6 31.0235
2664 30.5787
2665.4 30.1196
2666.7 29.6722
2668.1 29.2704
2669.5 28.9161
2670.9 28.5594
2672.2 28.1674
2673.6 27.7337
2675 27.2612
2676.4 26.7064
2677.8 26.0761
2679.1 25.4017
2680.5 24.6712
2681.9 23.8463
2683.3 22.8980
2684.7 21.8024
2686.1 20.5480
2687.5 19.1319
2688.9 17.5964
2690.3 16.0091
2691.7 14.4568
2693.1 13.0035
2694.5 11.6930
2695.9 10.5344
2697.3 9.5367
2698.7 8.7020
2700.1 8.0229
2701.5 7.4951
2702.9 7.1339
2704.3 6.9377
2705.7 6.8852
2707.1 6.9363
2708.5 7.0379
2710 7.1648
2711.4 7.2743
2712.8 7.3229
2714.2 7.2964
2715.6 7.1925
2717.1 7.0205
2718.5 6.8132
2719.9 6.5824
2721.3 6.3342
2722.8 6.1022
2724.2 5.8967
2725.6 5.7263
2727.1 5.5852
2728.5 5.4526
2729.9 5.3323
2731.4 5.2049
2732.8 5.0521
2734.3 4.8985
2735.7 4.7506
2737.1 4.6269
2738.6 4.5310
2740 4.4540
2741.5 4.3992
2742.9 4.3630
2744.4 4.3279
2745.8 4.2781
2747.3 4.2032
2748.8 4.1041
2750.2 3.9934
2751.7 3.8860
2753.1 3.7826
2754.6 3.6943
2756.1 3.6173
2757.5 3.5520
2759 3.5115
2760.5 3.5115
2761.9 3.5699
2763.4 3.6604
2764.9 3.7587
2766.4 3.8812
2767.8 4.0013
2769.3 4.0991
2770.8 4.1821
2772.3 4.2526
2773.8 4.3204
2775.2 4.3723
2776.7 4.4047
2778.2 4.4475
2779.7 4.5004
2781.2 4.5582
2782.7 4.6147
2784.2 4.6594
2785.7 4.7052
2787.2 4.7528
2788.7 4.8059
2790.2 4.8702
2791.7 4.9444
2793.2 5.0242
2794.7 5.0932
2796.2 5.1391
2797.7 5.1504
2799.2 5.1387
2800.7 5.1396
2802.2 5.1523
2803.8 5.1715
2805.3 5.2059
2806.8 5.2497
2808.3 5.2899
2809.8 5.3160
2811.4 5.3325
2812.9 5.3509
2814.4 5.3622
2815.9 5.3646
2817.5 5.3708
2819 5.3689
2820.5 5.3646
2822.1 5.3667
2823.6 5.3741
2825.2 5.3821
2826.7 5.3854
2828.2 5.3904
2829.8 5.4088
2831.3 5.4234
2832.9 5.4220
2834.4 5.4050
2836 5.3938
2837.5 5.3830
2839.1 5.3732
2840.6 5.3729
2842.2 5.3906
2843.7 5.4073
2845.3 5.4031
2846.9 5.3906
2848.4 5.3821
2850 5.3662
2851.6 5.3462
2853.1 5.3238
2854.7 5.3163
2856.3 5.3021
2857.9 5.2796
2859.4 5.2746
2861 5.2729
2862.6 5.2612
2864.2 5.2406
2865.8 5.2112
2867.3 5.1885
2868.9 5.1662
2870.5 5.1605
2872.1 5.1750
2873.7 5.1825
2875.3 5.1717
2876.9 5.1603
2878.5 5.1421
2880.1 5.1131
2881.7 5.0923
2883.3 5.0978
2884.9 5.0980
2886.5 5.0843
2888.1 5.0641
2889.7 5.0484
2891.3 5.0289
2892.9 5.0123
2894.6 5.0030
2896.2 5.0026
2897.8 4.9956
2899.4 4.9853
2901 4.9712
2902.7 4.9514
2904.3 4.9288
2905.9 4.9148
2907.5 4.9040
2909.2 4.8951
2910.8 4.8954
2912.4 4.9090
2914.1 4.9243
2915.7 4.9370
2917.4 4.9377
2919 4.9265
2920.7 4.9109
2922.3 4.8906
2923.9 4.8712
2925.6 4.8622
2927.2 4.8605
2928.9 4.8739
2930.6 4.8872
2932.2 4.9009
2933.9 4.9116
2935.5 4.9210
2937.2 4.9208
2938.9 4.9109
2940.5 4.8976
2942.2 4.8956
2943.9 4.8927
2945.5 4.8901
2947.2 4.8985
2948.9 4.9208
2950.6 4.9286
2952.3 4.9205
2953.9 4.9106
2955.6 4.9028
2957.3 4.8989
2959 4.9054
2960.7 4.9265
2962.4 4.9574
2964.1 4.9856
2965.8 5.0115
2967.5 5.0347
2969.2 5.0439
2970.9 5.0476
2972.6 5.0533
2974.3 5.0621
2976 5.0801
2977.7 5.1100
2979.4 5.1423
2981.1 5.1576
2982.8 5.1645
2984.5 5.1691
