# Soil optical properties : Light yellowish brown clay
# Colums : Wavelength(nm) Reflectance(%) Transmitance(%)
#
300 14.3928
400 14.3928
401 14.7918
402 14.7352
403 14.9565
404 14.9191
405 15.0582
406 15.1845
407 15.4366
408 15.5556
409 15.5421
410 15.6469
411 15.9802
412 16.1119
413 16.2854
414 16.4171
415 16.4478
416 16.7829
417 17.1004
418 17.1004
419 17.1694
420 17.3708
421 17.6561
422 17.9787
423 17.8088
424 18.2016
425 18.3996
426 18.6887
427 18.7917
428 18.9265
429 18.9965
430 19.1582
431 19.6381
432 19.8602
433 19.5339
434 20.2324
435 20.2543
436 20.3970
437 20.5622
438 21.0583
439 20.9540
440 21.4080
441 21.6954
442 21.8597
443 21.9659
444 22.0594
445 22.3603
446 22.3349
447 22.4270
448 22.7518
449 23.1861
450 23.1183
451 23.3810
452 23.7312
453 23.6349
454 23.6624
455 23.6761
456 23.6642
457 24.2162
458 24.1605
459 23.8033
460 24.0956
461 24.5445
462 24.2996
463 24.7919
464 24.6757
465 24.7172
466 24.7023
467 24.7880
468 24.9579
469 25.0845
470 25.2106
471 25.3823
472 25.6128
473 25.3952
474 25.6963
475 25.6128
476 25.7121
477 26.1031
478 25.9257
479 26.2171
480 25.7480
481 25.9735
482 26.4774
483 26.5911
484 26.7900
485 26.7352
486 26.8315
487 26.7517
488 27.0156
489 26.9653
490 27.2236
491 27.3358
492 27.5676
493 28.0087
494 28.1914
495 28.0685
496 28.1804
497 28.3681
498 28.4595
499 28.5889
500 28.9200
501 29.2178
502 29.1245
503 29.2539
504 29.4205
505 29.4758
506 29.6592
507 29.9711
508 30.4326
509 30.4187
510 30.5098
511 30.4145
512 30.8315
513 30.9686
514 31.2641
515 31.3143
516 31.1606
517 31.3642
518 31.4627
519 31.8290
520 32.0461
521 32.5542
522 32.6216
523 32.6682
524 32.7556
525 33.4907
526 33.2479
527 33.6114
528 33.8253
529 33.8897
530 34.0383
531 34.7083
532 34.8544
533 34.8764
534 34.9363
535 34.9582
536 35.5669
537 35.9918
538 35.5385
539 35.4716
540 35.8567
541 36.3606
542 36.0607
543 36.1884
544 36.7237
545 37.0254
546 37.0955
547 37.1064
548 37.5857
549 37.6671
550 37.9248
551 38.0238
552 38.1127
553 38.3989
554 38.4781
555 38.5093
556 38.5165
557 38.8888
558 38.7077
559 39.2955
560 40.5245
561 40.7970
562 40.8096
563 41.0281
564 41.0260
565 40.7553
566 40.8577
567 40.8835
568 41.3042
569 41.3042
570 41.7196
571 41.7996
572 41.8688
573 42.1428
574 42.3945
575 42.5882
576 42.6997
577 42.7556
578 43.0366
579 42.8604
580 42.9088
581 43.1174
582 42.9650
583 43.2020
584 43.7350
585 43.6958
586 43.6568
587 44.2312
588 44.1073
589 43.7141
590 44.1483
591 44.1073
592 44.4205
593 45.0740
594 44.8803
595 44.5260
596 44.1183
597 44.2550
598 44.5307
599 44.2837
600 44.2025
601 44.0212
602 44.0101
603 44.2002
604 44.3728
605 44.4244
606 44.5955
607 44.3764
608 44.4760
609 44.6385
610 44.4201
611 44.3365
612 44.6103
613 44.8793
614 44.8008
615 44.7010
616 44.8859
617 44.9713
618 45.2722
619 45.4301
620 45.3588
621 45.2874
622 45.2007
623 45.0427
624 45.1214
625 45.0849
626 45.1417
627 45.3703
628 45.1267
629 45.2691
630 45.2571
631 44.8302
632 44.6747
633 44.8020
634 45.0706
635 45.1417
636 45.4254
637 45.2112
638 45.3815
639 45.8372
640 46.0112
641 46.2272
642 45.9359
643 46.1508
644 46.1394
645 46.2091
646 46.0520
647 46.2091
648 45.6102
649 45.7917
650 46.0056
651 46.1217
652 46.5240
653 46.6034
654 46.5741
655 46.8397
656 46.3702
657 46.8203
658 47.1384
659 46.7267
660 46.5799
661 46.9180
662 46.6236
663 46.6921
664 46.2262
665 46.6819
666 47.1122
667 47.1712
668 47.3879
669 47.2303
670 46.9068
671 47.1513
672 47.5159
673 47.4861
674 47.3377
675 47.6626
676 47.1902
677 47.1021
678 47.4148
679 47.6224
680 48.2516
681 48.1341
682 48.0807
683 47.9675
684 47.9526
685 47.7147
686 47.8631
687 48.0124
688 47.8929
689 47.6769
690 47.9227
691 47.9825
692 48.4911
693 48.2694
694 48.5819
695 48.7954
696 48.5213
697 48.6369
698 48.9747
699 50.1950
700 48.7587
701 49.0331
702 48.9682
703 48.9082
704 48.9368
705 48.7876
706 49.0078
707 49.2870
708 49.1068
709 49.1068
710 49.1710
711 49.0172
712 49.3852
713 49.5095
714 49.4492
715 49.2950
716 49.2309
717 49.8215
718 49.9432
719 50.2534
720 50.0676
721 49.8218
722 49.8854
723 49.7645
724 49.6108
725 49.6443
726 49.6762
727 50.0455
728 50.1669
729 50.2277
730 50.4738
731 50.5681
732 50.1986
733 50.3204
734 50.2633
735 50.4152
736 50.5375
737 50.7535
738 50.9383
739 50.6306
740 50.9088
741 50.5999
742 50.8784
743 50.6946
744 50.9403
745 50.7572
746 50.9411
747 51.0022
748 50.4261
749 50.5165
750 50.9436
751 51.0328
752 51.0942
753 50.9106
754 50.8521
755 51.4970
756 51.5279
757 51.3734
758 51.0689
759 51.0666
760 51.0669
761 51.0365
762 51.2502
763 51.3115
764 52.0183
765 51.6800
766 51.4065
767 51.3758
768 51.2498
769 51.5863
770 51.9566
771 51.8027
772 51.8944
773 51.7098
774 52.0131
775 51.7717
776 51.5546
777 51.4060
778 51.2845
779 51.0728
780 51.5537
781 52.3822
782 51.9230
783 51.7696
784 51.8949
785 52.2658
786 52.2636
787 52.2948
788 51.9861
789 51.8013
790 51.5266
791 51.3149
792 51.9244
793 52.2013
794 51.6881
795 51.8936
796 51.8936
797 51.7493
798 52.0263
799 52.0237
800 51.5365
804 51.1827
808 51.2115
812 51.2389
816 51.4127
820 51.0737
824 50.9220
828 50.9301
832 50.7789
836 51.0083
840 50.5995
844 51.0442
848 50.5711
852 50.6650
856 50.1982
860 50.2642
864 49.9288
868 50.0630
872 49.9531
876 50.0185
880 49.8000
884 49.6532
888 49.6103
892 49.4534
896 49.4336
900 49.3852
904 49.4619
908 49.6599
912 49.4735
916 49.3294
920 49.3029
924 49.3735
928 49.4057
932 49.5759
936 49.4910
940 49.6615
944 49.5291
948 49.6615
952 49.9076
956 50.1690
960 50.0888
964 49.7813
968 49.7285
972 50.0900
976 49.9841
980 50.0477
984 50.2803
988 50.3269
992 50.4345
996 50.4596
1000 50.3269
1004 50.6025
1008 50.8082
1012 50.6653
1016 50.6745
1020 50.8259
1024 50.9952
1028 50.7902
1032 51.0102
1036 50.8777
1040 50.8521
1044 51.8198
1048 51.6014
1052 51.0120
1056 50.9138
1060 51.0878
1064 51.0956
1068 50.7284
1072 50.9571
1076 50.9100
1080 50.5886
1084 50.9918
1088 51.1246
1092 51.4608
1096 51.5116
1100 51.6327
1104 51.2848
1108 51.3521
1112 51.4386
1116 51.7120
1120 51.5118
1124 51.6789
1128 51.8133
1132 51.6050
1136 52.1657
1140 52.1333
1144 51.0314
1148 51.7810
1152 51.9434
1156 52.2100
1160 52.1660
1164 52.2429
1168 52.4240
1172 52.4548
1176 52.5349
1180 52.5885
1184 52.9883
1188 52.7929
1192 52.9284
1196 53.2062
1200 53.2335
1204 53.2873
1208 52.8983
1212 53.2609
1216 53.6225
1220 53.7081
1224 53.8763
1228 54.4335
1232 54.7166
1236 54.4908
1240 54.7706
1244 54.7138
1248 54.5725
1252 54.6828
1256 54.7927
1260 54.8474
1264 55.2686
1268 55.8803
1272 56.0464
1276 56.0244
1280 56.1639
1284 56.2024
1288 56.1069
1292 56.2587
1296 56.1969
1300 56.1307
1304 56.1824
1308 56.2991
1312 56.2938
1316 56.0404
1320 55.8139
1324 55.7824
1328 55.9253
1332 56.2240
1336 56.5464
1340 56.6199
1344 56.6647
1348 56.9763
1352 56.5804
1356 56.6145
1360 56.8394
1364 57.0523
1368 56.5377
1372 56.0219
1376 55.5411
1380 55.4386
1384 54.8767
1388 54.0620
1392 53.1029
1396 52.2347
1400 51.5642
1404 50.6349
1408 50.0112
1412 50.0265
1416 50.4622
1420 51.0790
1424 51.9708
1428 52.6390
1432 52.9883
1436 53.4994
1440 53.9035
1444 54.2785
1448 54.3628
1452 54.5129
1456 55.1008
1460 55.4684
1464 55.7688
1468 55.9265
1472 56.4598
1476 56.9503
1480 57.0286
1484 57.0783
1488 57.4429
1492 57.4720
1496 57.6742
1500 58.2897
1504 58.2637
1508 58.2448
1512 58.6827
1516 58.7991
1520 58.6827
1524 58.8830
1528 58.9412
1532 59.5227
1536 59.5754
1540 59.6459
1544 59.4274
1548 59.4327
1552 59.6425
1556 59.8062
1560 60.3153
1564 60.2856
1568 60.3291
1572 60.6297
1576 60.8556
1580 60.8556
1584 61.0518
1588 60.8111
1592 60.6318
1596 60.7213
1600 61.1515
1604 61.2546
1608 61.3290
1612 61.2546
1616 60.7973
1620 60.7762
1624 61.0442
1628 61.1943
1632 61.3149
1636 61.2450
1640 61.6494
1644 61.3496
1648 61.4033
1652 61.5727
1656 61.8608
1660 61.5404
1664 61.7132
1668 61.6005
1672 61.4364
1676 61.5243
1680 61.5243
1684 61.6194
1688 61.7756
1692 62.2589
1696 62.1072
1700 61.5361
1704 61.6394
1708 61.9000
1712 61.9302
1716 61.6856
1720 61.6964
1724 61.7301
1728 61.5265
1732 61.6662
1736 61.5458
1740 61.8174
1744 61.5820
1748 61.3011
1752 61.3765
1756 61.3181
1760 61.5653
1764 61.4749
1768 61.1389
1772 61.3246
1776 61.3246
1780 61.0794
1784 60.7831
1788 60.8645
1792 60.5099
1796 60.3783
1800 60.5398
1804 60.4368
1808 60.5477
1812 60.7607
1816 60.7902
1820 60.6135
1824 60.5255
1828 60.5688
1832 60.4179
1836 60.6170
1840 60.3776
1844 60.1062
1848 59.7998
1852 58.9318
1856 58.2639
1860 57.5788
1864 55.9538
1868 54.2538
1872 52.3118
1876 50.0218
1880 47.5900
1884 45.2335
1888 42.5116
1892 40.3054
1896 38.1833
1900 36.9425
1904 36.7314
1908 37.0638
1912 37.8699
1916 38.6027
1920 39.3388
1924 40.0634
1928 40.7319
1932 41.3449
1936 41.9748
1940 42.3314
1944 42.6596
1948 43.2411
1952 43.5874
1956 43.9753
1960 44.5899
1964 45.4329
1968 45.7510
1972 45.9026
1976 46.4886
1980 47.0848
1984 47.8984
1988 48.2474
1992 48.6275
1996 49.0682
2000 49.4338
2004 49.8037
2008 50.2050
2012 50.5069
2016 50.9631
2020 51.0194
2024 51.4964
2028 51.5995
2032 51.8775
2036 51.4139
2040 51.7802
2044 52.0790
2048 51.8914
2052 51.9374
2056 51.8603
2060 51.8891
2064 52.0606
2068 51.6434
2072 51.5476
2076 51.2822
2079.5 51.6997
2080.3 51.7201
2081.2 51.7495
2082 51.7064
2082.8 51.7490
2083.7 51.7516
2084.5 51.7495
2085.3 51.7490
2086.2 51.7381
2087 51.7364
2087.9 51.7445
2088.7 51.7613
2089.5 51.7831
2090.4 51.8011
2091.2 51.8127
2092.1 51.8174
2092.9 51.8165
2093.8 51.8122
2094.6 51.8061
2095.5 51.7978
2096.3 51.7845
2097.1 51.7637
2098 51.7336
2098.8 51.6945
2099.7 51.6460
2100.5 51.5891
2101.4 51.5273
2102.3 51.4646
2103.1 51.4037
2104 51.3469
2104.8 51.2945
2105.7 51.2465
2106.5 51.1991
2107.4 51.1494
2108.2 51.0963
2109.1 51.0409
2110 50.9848
2110.8 50.9324
2111.7 50.8901
2112.5 50.8628
2113.4 50.8500
2114.3 50.8481
2115.1 50.8562
2116 50.8749
2116.8 50.9055
2117.7 50.9481
2118.6 51.0056
2119.4 51.0767
2120.3 51.1551
2121.2 51.2330
2122 51.3073
2122.9 51.3777
2123.8 51.4442
2124.7 51.5060
2125.5 51.5638
2126.4 51.6195
2127.3 51.6737
2128.1 51.7281
2129 51.7864
2129.9 51.8511
2130.8 51.9214
2131.6 51.9915
2132.5 52.0542
2133.4 52.1066
2134.3 52.1480
2135.2 52.1843
2136 52.2214
2136.9 52.2652
2137.8 52.3169
2138.7 52.3725
2139.6 52.4258
2140.4 52.4720
2141.3 52.5096
2142.2 52.5414
2143.1 52.5696
2144 52.5963
2144.9 52.6238
2145.8 52.6505
2146.6 52.6735
2147.5 52.6889
2148.4 52.6929
2149.3 52.6835
2150.2 52.6593
2151.1 52.6231
2152 52.5793
2152.9 52.5336
2153.8 52.4893
2154.7 52.4464
2155.6 52.4026
2156.5 52.3562
2157.4 52.3036
2158.3 52.2432
2159.2 52.1760
2160.1 52.1047
2161 52.0325
2161.9 51.9602
2162.8 51.8906
2163.7 51.8278
2164.6 51.7717
2165.5 51.7220
2166.4 51.6777
2167.3 51.6377
2168.2 51.6000
2169.1 51.5614
2170 51.5209
2170.9 51.4790
2171.8 51.4350
2172.7 51.3874
2173.6 51.3355
2174.6 51.2796
2175.5 51.2216
2176.4 51.1636
2177.3 51.1091
2178.2 51.0625
2179.1 51.0255
2180 50.9978
2181 50.9782
2181.9 50.9637
2182.8 50.9535
2183.7 50.9445
2184.6 50.9341
2185.6 50.9192
2186.5 50.8960
2187.4 50.8621
2188.3 50.8171
2189.3 50.7612
2190.2 50.6975
2191.1 50.6298
2192 50.5602
2193 50.4898
2193.9 50.4188
2194.8 50.3468
2195.7 50.2720
2196.7 50.1903
2197.6 50.0977
2198.5 49.9916
2199.5 49.8717
2200.4 49.7389
2201.3 49.5956
2202.3 49.4469
2203.2 49.2977
2204.1 49.1516
2205.1 49.0116
2206 48.8835
2207 48.7736
2207.9 48.6858
2208.8 48.6221
2209.8 48.5821
2210.7 48.5626
2211.7 48.5584
2212.6 48.5636
2213.6 48.5754
2214.5 48.5918
2215.5 48.6117
2216.4 48.6346
2217.3 48.6609
2218.3 48.6896
2219.2 48.7189
2220.2 48.7488
2221.1 48.7791
2222.1 48.8103
2223.1 48.8433
2224 48.8807
2225 48.9226
2225.9 48.9664
2226.9 49.0071
2227.8 49.0410
2228.8 49.0661
2229.7 49.0836
2230.7 49.0978
2231.7 49.1137
2232.6 49.1345
2233.6 49.1580
2234.5 49.1779
2235.5 49.1881
2236.5 49.1855
2237.4 49.1712
2238.4 49.1490
2239.4 49.1265
2240.3 49.1097
2241.3 49.1012
2242.3 49.0993
2243.3 49.1002
2244.2 49.0993
2245.2 49.0931
2246.2 49.0801
2247.1 49.0618
2248.1 49.0410
2249.1 49.0216
2250.1 49.0083
2251 49.0024
2252 49.0048
2253 49.0145
2254 49.0296
2255 49.0483
2255.9 49.0699
2256.9 49.0952
2257.9 49.1253
2258.9 49.1594
2259.9 49.1954
2260.9 49.2295
2261.8 49.2577
2262.8 49.2773
2263.8 49.2887
2264.8 49.2949
2265.8 49.2979
2266.8 49.3001
2267.8 49.3015
2268.8 49.2998
2269.8 49.2885
2270.8 49.2610
2271.8 49.2139
2272.8 49.1461
2273.8 49.0597
2274.7 48.9600
2275.7 48.8523
2276.7 48.7398
2277.7 48.6214
2278.7 48.4958
2279.8 48.3623
2280.8 48.2190
2281.8 48.0651
2282.8 47.8991
2283.8 47.7196
2284.8 47.5268
2285.8 47.3231
2286.8 47.1147
2287.8 46.9099
2288.8 46.7152
2289.8 46.5348
2290.8 46.3697
2291.8 46.2177
2292.9 46.0754
2293.9 45.9401
2294.9 45.8101
2295.9 45.6856
2296.9 45.5664
2297.9 45.4540
2299 45.3502
2300 45.2548
2301 45.1660
2302 45.0798
2303 44.9933
2304.1 44.9043
2305.1 44.8112
2306.1 44.7160
2307.1 44.6225
2308.2 44.5346
2309.2 44.4574
2310.2 44.3982
2311.3 44.3660
2312.3 44.3677
2313.3 44.4058
2314.4 44.4771
2315.4 44.5711
2316.4 44.6746
2317.5 44.7743
2318.5 44.8640
2319.5 44.9436
2320.6 45.0142
2321.6 45.0781
2322.6 45.1328
2323.7 45.1738
2324.7 45.1968
2325.8 45.1991
2326.8 45.1842
2327.9 45.1572
2328.9 45.1217
2330 45.0795
2331 45.0301
2332.1 44.9720
2333.1 44.9055
2334.2 44.8323
2335.2 44.7565
2336.3 44.6807
2337.3 44.6066
2338.4 44.5342
2339.4 44.4626
2340.5 44.3906
2341.5 44.3184
2342.6 44.2467
2343.6 44.1773
2344.7 44.1119
2345.8 44.0520
2346.8 43.9980
2347.9 43.9487
2349 43.9026
2350 43.8585
2351.1 43.8166
2352.2 43.7775
2353.2 43.7404
2354.3 43.7036
2355.4 43.6648
2356.4 43.6210
2357.5 43.5715
2358.6 43.5173
2359.7 43.4611
2360.7 43.4050
2361.8 43.3484
2362.9 43.2911
2364 43.2312
2365 43.1682
2366.1 43.1033
2367.2 43.0394
2368.3 42.9788
2369.4 42.9238
2370.4 42.8743
2371.5 42.8284
2372.6 42.7817
2373.7 42.7310
2374.8 42.6742
2375.9 42.6105
2377 42.5409
2378.1 42.4684
2379.1 42.3964
2380.2 42.3261
2381.3 42.2576
2382.4 42.1916
2383.5 42.1288
2384.6 42.0689
2385.7 42.0128
2386.8 41.9609
2387.9 41.9128
2389 41.8650
2390.1 41.8143
2391.2 41.7589
2392.3 41.6969
2393.4 41.6280
2394.5 41.5526
2395.6 41.4731
2396.7 41.3897
2397.9 41.3033
2399 41.2135
2400.1 41.1200
2401.2 41.0224
2402.3 40.9206
2403.4 40.8152
2404.5 40.7079
2405.6 40.5990
2406.8 40.4867
2407.9 40.3681
2409 40.2400
2410.1 40.0995
2411.2 39.9456
2412.4 39.7798
2413.5 39.6067
2414.6 39.4310
2415.7 39.2558
2416.9 39.0850
2418 38.9209
2419.1 38.7639
2420.2 38.6123
2421.4 38.4636
2422.5 38.3163
2423.6 38.1707
2424.8 38.0279
2425.9 37.8908
2427 37.7622
2428.2 37.6438
2429.3 37.5339
2430.5 37.4292
2431.6 37.3288
2432.7 37.2317
2433.9 37.1386
2435 37.0510
2436.2 36.9693
2437.3 36.8914
2438.5 36.8135
2439.6 36.7313
2440.8 36.6423
2441.9 36.5457
2443.1 36.4412
2444.2 36.3301
2445.4 36.2132
2446.5 36.0914
2447.7 35.9655
2448.8 35.8369
2450 35.7085
2451.1 35.5837
2452.3 35.4636
2453.5 35.3483
2454.6 35.2358
2455.8 35.1222
2456.9 35.0040
2458.1 34.8799
2459.3 34.7508
2460.4 34.6213
2461.6 34.4960
2462.8 34.3783
2464 34.2696
2465.1 34.1687
2466.3 34.0728
2467.5 33.9788
2468.6 33.8841
2469.8 33.7891
2471 33.6942
2472.2 33.5990
2473.4 33.5028
2474.5 33.4050
2475.7 33.3051
2476.9 33.2035
2478.1 33.1028
2479.3 33.0067
2480.5 32.9183
2481.6 32.8376
2482.8 32.7628
2484 32.6905
2485.2 32.6176
2486.4 32.5428
2487.6 32.4672
2488.8 32.3947
2490 32.3275
2491.2 32.2666
2492.4 32.2112
2493.6 32.1596
2494.8 32.1101
2496 32.0632
2497.2 32.0206
2498.4 31.9836
2499.6 31.9521
2500.8 31.9242
2502 31.8974
2503.2 31.8700
2504.4 31.8418
2505.6 31.8134
2506.8 31.7868
2508.1 31.7634
2509.3 31.7426
2510.5 31.7220
2511.7 31.6999
2512.9 31.6746
2514.1 31.6455
2515.4 31.6121
2516.6 31.5761
2517.8 31.5382
2519 31.5001
2520.2 31.4626
2521.5 31.4271
2522.7 31.3930
2523.9 31.3594
2525.2 31.3239
2526.4 31.2836
2527.6 31.2341
2528.9 31.1728
2530.1 31.1027
2531.3 31.0300
2532.6 30.9627
2533.8 30.9111
2535 30.8815
2536.3 30.8737
2537.5 30.8789
2538.8 30.8860
2540 30.8905
2541.3 30.8940
2542.5 30.9007
2543.7 30.9149
2545 30.9400
2546.2 30.9727
2547.5 31.0044
2548.7 31.0323
2550 31.0693
2551.3 31.1313
2552.5 31.2246
2553.8 31.3357
2555 31.4323
2556.3 31.4740
2557.5 31.4335
2558.8 31.3168
2560.1 31.1683
2561.3 31.0537
2562.6 31.0236
2563.9 31.0887
2565.1 31.2159
2566.4 31.3475
2567.7 31.4323
2569 31.4382
2570.2 31.3757
2571.5 31.2936
2572.8 31.2367
2574.1 31.2294
2575.3 31.2677
2576.6 31.3232
2577.9 31.3563
2579.2 31.3191
2580.5 31.2019
2581.7 31.0484
2583 30.9139
2584.3 30.8464
2585.6 30.8580
2586.9 30.9099
2588.2 30.9253
2589.5 30.8114
2590.8 30.5350
2592.1 30.1736
2593.4 29.8599
2594.7 29.7135
2596 29.7824
2597.3 30.0211
2598.6 30.3048
2599.9 30.4780
2601.2 30.4417
2602.5 30.2288
2603.8 29.9555
2605.1 29.7407
2606.4 29.6602
2607.7 29.7265
2609 29.8809
2610.3 30.0166
2611.7 30.0313
2613 29.8959
2614.3 29.6510
2615.6 29.3569
2616.9 29.0916
2618.3 28.9299
2619.6 28.8922
2620.9 28.9368
2622.2 28.9784
2623.6 28.9526
2624.9 28.8292
2626.2 28.6000
2627.5 28.3191
2628.9 28.0733
2630.2 27.9196
2631.5 27.8754
2632.9 27.9177
2634.2 28.0065
2635.6 28.0819
2636.9 28.0840
2638.2 27.9990
2639.6 27.8415
2640.9 27.6317
2642.3 27.4022
2643.6 27.1824
2645 26.9852
2646.3 26.8002
2647.7 26.6074
2649 26.3955
2650.4 26.1610
2651.7 25.9098
2653.1 25.6659
2654.5 25.4416
2655.8 25.2301
2657.2 25.0122
2658.5 24.7577
2659.9 24.4275
2661.3 23.9980
2662.6 23.4841
2664 22.9394
2665.4 22.4160
2666.7 21.9625
2668.1 21.6213
2669.5 21.3897
2670.9 21.2116
2672.2 21.0174
2673.6 20.7633
2675 20.4344
2676.4 20.0308
2677.8 19.5766
2679.1 19.1110
2680.5 18.6507
2681.9 18.1865
2683.3 17.7027
2684.7 17.1893
2686.1 16.6392
2687.5 16.0481
2688.9 15.4158
2690.3 14.7513
2691.7 14.0697
2693.1 13.3851
2694.5 12.7078
2695.9 12.0437
2697.3 11.3958
2698.7 10.7692
2700.1 10.1686
2701.5 9.6088
2702.9 9.1096
2704.3 8.6817
2705.7 8.3236
2707.1 8.0250
2708.5 7.7732
2710 7.5532
2711.4 7.3489
2712.8 7.1464
2714.2 6.9340
2715.6 6.7019
2717.1 6.4506
2718.5 6.1942
2719.9 5.9531
2721.3 5.7475
2722.8 5.5872
2724.2 5.4674
2725.6 5.3719
2727.1 5.2791
2728.5 5.1723
2729.9 5.0411
2731.4 4.8841
2732.8 4.7084
2734.3 4.5227
2735.7 4.3359
2737.1 4.1571
2738.6 3.9951
2740 3.8549
2741.5 3.7362
2742.9 3.6351
2744.4 3.5447
2745.8 3.4556
2747.3 3.3604
2748.8 3.2583
2750.2 3.1527
2751.7 3.0502
2753.1 2.9600
2754.6 2.8873
2756.1 2.8335
2757.5 2.7954
2759 2.7684
2760.5 2.7475
2761.9 2.7267
2763.4 2.7028
2764.9 2.6751
2766.4 2.6426
2767.8 2.6069
2769.3 2.5725
2770.8 2.5460
2772.3 2.5339
2773.8 2.5401
2775.2 2.5645
2776.7 2.6036
2778.2 2.6504
2779.7 2.6980
2781.2 2.7411
2782.7 2.7769
2784.2 2.8046
2785.7 2.8250
2787.2 2.8397
2788.7 2.8506
2790.2 2.8600
2791.7 2.8697
2793.2 2.8797
2794.7 2.8880
2796.2 2.8922
2797.7 2.8899
2799.2 2.8804
2800.7 2.8655
2802.2 2.8491
2803.8 2.8366
2805.3 2.8318
2806.8 2.8366
2808.3 2.8496
2809.8 2.8671
2811.4 2.8861
2812.9 2.9029
2814.4 2.9152
2815.9 2.9221
2817.5 2.9242
2819 2.9223
2820.5 2.9180
2822.1 2.9128
2823.6 2.9102
2825.2 2.9128
2826.7 2.9209
2828.2 2.9318
2829.8 2.9417
2831.3 2.9465
2832.9 2.9443
2834.4 2.9370
2836 2.9301
2837.5 2.9292
2839.1 2.9372
2840.6 2.9529
2842.2 2.9720
2843.7 2.9905
2845.3 3.0054
2846.9 3.0161
2848.4 3.0251
2850 3.0357
2851.6 3.0495
2853.1 3.0663
2854.7 3.0852
2856.3 3.1051
2857.9 3.1238
2859.4 3.1397
2861 3.1537
2862.6 3.1667
2864.2 3.1788
2865.8 3.1899
2867.3 3.2003
2868.9 3.2098
2870.5 3.2171
2872.1 3.2221
2873.7 3.2266
2875.3 3.2318
2876.9 3.2389
2878.5 3.2477
2880.1 3.2576
2881.7 3.2673
2883.3 3.2752
2884.9 3.2785
2886.5 3.2754
2888.1 3.2666
2889.7 3.2557
2891.3 3.2465
2892.9 3.2420
2894.6 3.2427
2896.2 3.2484
2897.8 3.2555
2899.4 3.2607
2901 3.2645
2902.7 3.2695
2904.3 3.2773
2905.9 3.2889
2907.5 3.3019
2909.2 3.3140
2910.8 3.3223
2912.4 3.3261
2914.1 3.3266
2915.7 3.3266
2917.4 3.3292
2919 3.3360
2920.7 3.3467
2922.3 3.3590
2923.9 3.3715
2925.6 3.3817
2927.2 3.3886
2928.9 3.3919
2930.6 3.3936
2932.2 3.3962
2933.9 3.4016
2935.5 3.4109
2937.2 3.4251
2938.9 3.4428
2940.5 3.4627
2942.2 3.4826
2943.9 3.4999
2945.5 3.5141
2947.2 3.5238
2948.9 3.5290
2950.6 3.5314
2952.3 3.5321
2953.9 3.5338
2955.6 3.5376
2957.3 3.5451
2959 3.5570
2960.7 3.5724
2962.4 3.5897
2964.1 3.6084
2965.8 3.6287
2967.5 3.6503
2969.2 3.6723
2970.9 3.6939
2972.6 3.7152
2974.3 3.7360
2976 3.7557
2977.7 3.7746
