# Soil optical properties : Dark brown interior moist clay loam
# Colums : Wavelength(nm) Reflectance(%) Transmitance(%)
#
300 5.5837
400 5.5837
401 5.6616
402 5.8814
403 5.7606
404 5.7147
405 5.8849
406 6.0152
407 6.0391
408 6.0879
409 6.3745
410 6.1122
411 6.0056
412 6.0397
413 6.2736
414 6.4325
415 6.3492
416 6.3999
417 6.4677
418 6.5635
419 6.5635
420 6.6950
421 6.7053
422 6.8557
423 6.7750
424 7.1261
425 6.9943
426 7.2658
427 7.3294
428 7.3673
429 7.3295
430 7.3860
431 7.8520
432 7.4046
433 7.2594
434 7.7002
435 7.8586
436 7.9812
437 8.0114
438 8.1192
439 8.0114
440 8.2045
441 8.3045
442 8.2421
443 8.4403
444 8.4318
445 8.6510
446 8.6188
447 9.0303
448 9.0869
449 9.0367
450 9.0702
451 9.3524
452 9.3697
453 9.4566
454 9.5181
455 9.5718
456 9.6013
457 9.5838
458 9.6721
459 9.5795
460 9.5785
461 9.9501
462 9.7683
463 9.6960
464 9.8076
465 9.8219
466 9.9324
467 10.1430
468 10.1610
469 10.1620
470 10.3120
471 10.3290
472 10.2480
473 10.3040
474 10.3610
475 10.4340
476 10.6380
477 10.4730
478 10.8220
479 10.8220
480 10.9880
481 10.9080
482 11.0850
483 10.9000
484 10.9650
485 11.3370
486 11.5550
487 11.4310
488 11.4310
489 11.4510
490 11.7510
491 11.7040
492 11.8720
493 11.9570
494 11.8720
495 11.9770
496 11.9770
497 12.2610
498 12.6300
499 12.6910
500 12.6250
501 12.8300
502 12.7030
503 12.5490
504 12.4840
505 12.4390
506 12.7860
507 12.8020
508 13.0110
509 12.9000
510 13.3930
511 13.4740
512 13.4290
513 13.4740
514 13.6480
515 13.7410
516 13.8860
517 14.1430
518 14.2480
519 14.2810
520 14.6040
521 14.5920
522 14.3650
523 14.4210
524 14.4650
525 14.4890
526 14.7790
527 14.7500
528 14.7850
529 14.7850
530 14.9270
531 15.1960
532 15.3010
533 15.5140
534 15.6190
535 15.5640
536 15.4850
537 15.7670
538 16.1660
539 16.1930
540 16.2460
541 16.3810
542 16.1940
543 16.3500
544 16.7180
545 16.7150
546 16.7150
547 16.7430
548 17.1350
549 17.2360
550 17.4650
551 17.5430
552 17.4620
553 17.6140
554 18.0790
555 18.0230
556 17.9400
557 17.8580
558 17.9400
559 18.0710
560 18.4530
561 18.7070
562 18.9670
563 19.0700
564 19.1160
565 19.1090
566 19.4250
567 19.4540
568 19.2700
569 19.4320
570 19.6240
571 19.9350
572 19.9200
573 20.1590
574 20.5930
575 20.3900
576 20.7170
577 20.7170
578 20.4950
579 20.4950
580 20.5880
581 20.5880
582 20.9340
583 20.9450
584 21.0520
585 21.7530
586 21.8630
587 21.6320
588 21.8040
589 21.7540
590 21.6890
591 21.5990
592 21.5430
593 21.7470
594 21.6490
595 21.5400
596 22.1260
597 22.0040
598 22.0780
599 22.0120
600 21.9960
601 22.2150
602 22.3380
603 22.0840
604 22.1650
605 22.1320
606 22.4940
607 22.4610
608 21.9710
609 22.4610
610 22.2440
611 22.5000
612 22.3310
613 22.4440
614 22.3370
615 22.5090
616 22.3750
617 22.1500
618 22.2140
619 22.2460
620 22.3520
621 22.4460
622 22.3690
623 22.4790
624 22.4520
625 22.7170
626 22.8920
627 22.4140
628 22.4850
629 23.0260
630 23.0980
631 22.8850
632 22.9010
633 22.7660
634 23.1060
635 23.2380
636 23.1320
637 22.8200
638 22.3380
639 22.7330
640 23.2420
641 23.4080
642 23.4080
643 23.1790
644 22.8730
645 23.1460
646 23.0720
647 23.0070
648 23.2120
649 23.4810
650 23.5720
651 23.6820
652 23.4020
653 23.2070
654 23.3060
655 23.6780
656 23.7790
657 23.9930
658 23.8920
659 23.7470
660 23.9860
661 23.8820
662 23.8460
663 23.8840
664 24.0920
665 24.0240
666 23.9540
667 24.0550
668 24.1570
669 23.9540
670 23.7860
671 23.7860
672 23.9540
673 24.0550
674 24.4680
675 24.5090
676 24.3650
677 24.4340
678 24.5030
679 24.3660
680 24.1280
681 24.2990
682 24.2300
683 24.4690
684 24.7090
685 24.6750
686 24.7750
687 24.7400
688 24.8810
689 24.8780
690 24.7400
691 24.9830
692 24.9840
693 25.0190
694 24.9840
695 25.0870
696 25.1240
697 25.1220
698 25.4070
699 25.8970
700 25.0450
701 25.1480
702 25.0450
703 24.9410
704 25.1430
705 24.9070
706 25.0750
707 25.2450
708 25.4480
709 25.3790
710 25.3110
711 25.3110
712 25.2750
713 25.3110
714 25.5510
715 25.9580
716 25.7550
717 25.6850
718 25.5430
719 25.2730
720 25.1680
721 25.2670
722 25.4030
723 25.4710
724 25.3680
725 25.3700
726 25.3020
727 25.6710
728 25.6370
729 25.6370
730 26.1060
731 25.7680
732 26.1760
733 25.9440
734 26.0760
735 25.9750
736 26.1460
737 25.7370
738 25.7710
739 25.8370
740 26.1720
741 26.4010
742 26.5010
743 26.3770
744 26.3370
745 26.1020
746 26.1020
747 26.2670
748 26.2620
749 26.4020
750 26.4020
751 26.3670
752 26.3020
753 26.5010
754 26.5770
755 26.6770
756 26.8650
757 26.5660
758 26.3280
759 26.4920
760 26.6610
761 26.7360
762 26.9070
763 26.9780
764 26.7950
765 26.6500
766 26.8240
767 26.8880
768 26.7200
769 26.6270
770 26.8890
771 26.8900
772 27.0170
773 27.2220
774 27.3360
775 27.2790
776 27.0070
777 27.2640
778 27.2150
779 27.3850
780 27.2230
781 27.3920
782 27.6360
783 27.1240
784 27.1940
785 27.3720
786 27.5000
787 27.0960
788 27.2940
789 27.5210
790 27.4930
791 27.3160
792 27.4570
793 27.9620
794 27.8900
795 28.0990
796 27.9990
797 27.7080
798 27.6790
799 27.6790
800 27.6790
804 27.8460
808 27.9120
812 28.0750
816 28.1320
820 28.0290
824 28.0690
828 27.8500
832 27.9690
836 27.9170
840 27.9170
844 27.6420
848 27.6420
852 27.6140
856 27.6140
860 27.6520
864 27.4840
868 27.4670
872 27.5320
876 27.5320
880 27.3350
884 27.6350
888 27.4930
892 27.4490
896 27.3830
900 27.4760
904 27.5690
908 27.4830
912 27.8280
916 27.6960
920 27.7510
924 27.7440
928 27.9180
932 27.8900
936 27.8340
940 27.7310
944 27.8810
948 27.9090
952 27.9650
956 28.1430
960 28.0580
964 27.8830
968 28.1260
972 28.1080
976 28.0240
980 27.6820
984 27.7940
988 28.3320
992 28.0300
996 28.1730
1000 28.3320
1004 28.3320
1008 28.3480
1012 28.4990
1016 28.4990
1020 28.6050
1024 28.5510
1028 28.4080
1032 28.2010
1036 28.3480
1040 28.4330
1044 28.6020
1048 28.5530
1052 28.9140
1056 28.8490
1060 28.7240
1064 28.7320
1068 28.9700
1072 28.8390
1076 28.9060
1080 29.0570
1084 29.0880
1088 29.3350
1092 29.3700
1096 29.2310
1100 28.9860
1104 28.8280
1108 29.3050
1112 29.2950
1116 29.6370
1120 29.8220
1124 29.9470
1128 29.6370
1132 29.9730
1136 30.0110
1140 30.1700
1144 29.6420
1148 29.6820
1152 29.7500
1156 29.8420
1160 29.9680
1164 30.2150
1168 30.3380
1172 30.4620
1176 30.5220
1180 30.6160
1184 30.7080
1188 30.8270
1192 30.9200
1196 30.9200
1200 31.0140
1204 31.0140
1208 31.1970
1212 31.4160
1216 31.3220
1220 31.3840
1224 31.2900
1228 31.5740
1232 31.7020
1236 31.6700
1240 31.7000
1244 31.7640
1248 32.1410
1252 31.8860
1256 31.7580
1260 31.7770
1264 31.6620
1268 31.7900
1272 32.0090
1276 32.0360
1280 31.9690
1284 32.2470
1288 32.5550
1292 32.7090
1296 32.9090
1300 32.5430
1304 32.5670
1308 32.7690
1312 32.8010
1316 32.6490
1320 32.7140
1324 32.7790
1328 32.5850
1332 32.6170
1336 32.7830
1340 33.2080
1344 32.7610
1348 32.6850
1352 32.6450
1356 32.9910
1360 32.9070
1364 32.6170
1368 32.5800
1372 32.8540
1376 32.7960
1380 32.6530
1384 32.8760
1388 32.3730
1392 32.0840
1396 32.0580
1400 31.7370
1404 31.6990
1408 31.6610
1412 31.8460
1416 32.2190
1420 32.4110
1424 32.4440
1428 32.5380
1432 32.6260
1436 32.5280
1440 32.6630
1444 32.8160
1448 32.9820
1452 33.4410
1456 33.8220
1460 33.8680
1464 33.9490
1468 33.9150
1472 34.1610
1476 34.0950
1480 34.1640
1484 34.1990
1488 34.3680
1492 34.5600
1496 34.1440
1500 34.1930
1504 34.5700
1508 34.6630
1512 34.5600
1516 34.5940
1520 34.5250
1524 34.6180
1528 34.7030
1532 34.5490
1536 34.7030
1540 35.0220
1544 35.2350
1548 35.2700
1552 35.5470
1556 35.2660
1560 35.0950
1564 35.2350
1568 35.1990
1572 34.7600
1576 34.9330
1580 35.0500
1584 35.1900
1588 35.3530
1592 35.2920
1596 35.6550
1600 35.9390
1604 35.7610
1608 35.6120
1612 35.6620
1616 35.9750
1620 35.9110
1624 36.1540
1628 36.1270
1632 35.9260
1636 36.0190
1640 36.0240
1644 36.3380
1648 36.4260
1652 36.4990
1656 36.3170
1660 36.0240
1664 36.1320
1668 36.2450
1672 36.2090
1676 36.7980
1680 36.5030
1684 36.3580
1688 36.2860
1692 36.1220
1696 36.1730
1700 36.2650
1704 36.4260
1708 36.4830
1712 36.6090
1716 36.7930
1720 36.6260
1724 36.4000
1728 36.2250
1732 36.2810
1736 36.4300
1740 36.6280
1744 36.6640
1748 36.7010
1752 36.7740
1756 36.5890
1760 36.5890
1764 36.5520
1768 36.7010
1772 36.5160
1776 36.5890
1780 36.6620
1784 36.5520
1788 36.6980
1792 36.6050
1796 36.8840
1800 36.8670
1804 36.6980
1808 37.0140
1812 36.9400
1816 36.9770
1820 36.8470
1824 36.8470
1828 36.6590
1832 36.2290
1836 36.1200
1840 36.3160
1844 36.4260
1848 36.8790
1852 37.4030
1856 37.3470
1860 36.8940
1864 36.1530
1868 35.4830
1872 35.1300
1876 34.9130
1880 34.6550
1884 34.2320
1888 33.6970
1892 32.8930
1896 32.1810
1900 31.1590
1904 30.2860
1908 29.9300
1912 29.8000
1916 29.7680
1920 30.4160
1924 30.8680
1928 31.3170
1932 31.7040
1936 32.1060
1940 32.0410
1944 32.1650
1948 32.3840
1952 32.5410
1956 32.5690
1960 32.7590
1964 32.8880
1968 33.1480
1972 33.5040
1976 33.7300
1980 33.8960
1984 34.2910
1988 34.3870
1992 34.2840
1996 34.6630
2000 34.6310
2004 35.0230
2008 35.4810
2012 35.8660
2016 36.0370
2020 36.2840
2024 36.3980
2028 36.3220
2032 36.4360
2036 36.8630
2040 36.9220
2044 37.0380
2048 37.1350
2052 37.2910
2056 37.2330
2060 37.4490
2064 37.5850
2068 37.4270
2072 37.4860
2076 37.7220
2079.5 37.7220
2080.3 37.7850
2081.2 38.0040
2082 38.2210
2082.8 38.1440
2083.7 38.1380
2084.5 38.0700
2085.3 37.9850
2086.2 37.9250
2087 37.8590
2087.9 37.8050
2088.7 37.7590
2089.5 37.7200
2090.4 37.6940
2091.2 37.6850
2092.1 37.6940
2092.9 37.7220
2093.8 37.7640
2094.6 37.8160
2095.5 37.8700
2096.3 37.9180
2097.1 37.9540
2098 37.9740
2098.8 37.9760
2099.7 37.9610
2100.5 37.9330
2101.4 37.8980
2102.3 37.8610
2103.1 37.8260
2104 37.8000
2104.8 37.7830
2105.7 37.7740
2106.5 37.7710
2107.4 37.7730
2108.2 37.7780
2109.1 37.7840
2110 37.7920
2110.8 37.8010
2111.7 37.8070
2112.5 37.8090
2113.4 37.8070
2114.3 37.8020
2115.1 37.7980
2116 37.8020
2116.8 37.8190
2117.7 37.8480
2118.6 37.8840
2119.4 37.9150
2120.3 37.9320
2121.2 37.9260
2122 37.8980
2122.9 37.8580
2123.8 37.8160
2124.7 37.7860
2125.5 37.7730
2126.4 37.7760
2127.3 37.7890
2128.1 37.8020
2129 37.8130
2129.9 37.8190
2130.8 37.8200
2131.6 37.8210
2132.5 37.8250
2133.4 37.8350
2134.3 37.8530
2135.2 37.8800
2136 37.9110
2136.9 37.9410
2137.8 37.9620
2138.7 37.9670
2139.6 37.9560
2140.4 37.9350
2141.3 37.9150
2142.2 37.9080
2143.1 37.9190
2144 37.9430
2144.9 37.9720
2145.8 37.9920
2146.6 37.9940
2147.5 37.9750
2148.4 37.9410
2149.3 37.9010
2150.2 37.8650
2151.1 37.8400
2152 37.8300
2152.9 37.8320
2153.8 37.8450
2154.7 37.8630
2155.6 37.8840
2156.5 37.9020
2157.4 37.9110
2158.3 37.9080
2159.2 37.8890
2160.1 37.8520
2161 37.8000
2161.9 37.7380
2162.8 37.6740
2163.7 37.6150
2164.6 37.5690
2165.5 37.5400
2166.4 37.5330
2167.3 37.5440
2168.2 37.5710
2169.1 37.6050
2170 37.6380
2170.9 37.6610
2171.8 37.6680
2172.7 37.6580
2173.6 37.6320
2174.6 37.5950
2175.5 37.5530
2176.4 37.5120
2177.3 37.4780
2178.2 37.4540
2179.1 37.4430
2180 37.4430
2181 37.4520
2181.9 37.4620
2182.8 37.4640
2183.7 37.4510
2184.6 37.4160
2185.6 37.3600
2186.5 37.2870
2187.4 37.2090
2188.3 37.1370
2189.3 37.0820
2190.2 37.0480
2191.1 37.0340
2192 37.0330
2193 37.0350
2193.9 37.0300
2194.8 37.0150
2195.7 36.9860
2196.7 36.9450
2197.6 36.8940
2198.5 36.8330
2199.5 36.7640
2200.4 36.6860
2201.3 36.6000
2202.3 36.5090
2203.2 36.4210
2204.1 36.3440
2205.1 36.2860
2206 36.2540
2207 36.2480
2207.9 36.2640
2208.8 36.2930
2209.8 36.3230
2210.7 36.3450
2211.7 36.3530
2212.6 36.3460
2213.6 36.3280
2214.5 36.3040
2215.5 36.2800
2216.4 36.2600
2217.3 36.2490
2218.3 36.2480
2219.2 36.2570
2220.2 36.2760
2221.1 36.3040
2222.1 36.3370
2223.1 36.3700
2224 36.3980
2225 36.4140
2225.9 36.4160
2226.9 36.4030
2227.8 36.3780
2228.8 36.3480
2229.7 36.3190
2230.7 36.2960
2231.7 36.2810
2232.6 36.2710
2233.6 36.2620
2234.5 36.2480
2235.5 36.2270
2236.5 36.1960
2237.4 36.1580
2238.4 36.1150
2239.4 36.0690
2240.3 36.0220
2241.3 35.9760
2242.3 35.9320
2243.3 35.8900
2244.2 35.8540
2245.2 35.8220
2246.2 35.7980
2247.1 35.7810
2248.1 35.7710
2249.1 35.7680
2250.1 35.7700
2251 35.7760
2252 35.7820
2253 35.7870
2254 35.7880
2255 35.7860
2255.9 35.7780
2256.9 35.7650
2257.9 35.7480
2258.9 35.7260
2259.9 35.7010
2260.9 35.6770
2261.8 35.6580
2262.8 35.6500
2263.8 35.6540
2264.8 35.6700
2265.8 35.6910
2266.8 35.7110
2267.8 35.7220
2268.8 35.7170
2269.8 35.6970
2270.8 35.6640
2271.8 35.6240
2272.8 35.5800
2273.8 35.5360
2274.7 35.4930
2275.7 35.4480
2276.7 35.4000
2277.7 35.3490
2278.7 35.2960
2279.8 35.2440
2280.8 35.1970
2281.8 35.1570
2282.8 35.1230
2283.8 35.0910
2284.8 35.0550
2285.8 35.0100
2286.8 34.9520
2287.8 34.8810
2288.8 34.8020
2289.8 34.7210
2290.8 34.6440
2291.8 34.5760
2292.9 34.5150
2293.9 34.4620
2294.9 34.4140
2295.9 34.3690
2296.9 34.3300
2297.9 34.2960
2299 34.2650
2300 34.2340
2301 34.1990
2302 34.1550
2303 34.1050
2304.1 34.0500
2305.1 34.0000
2306.1 33.9600
2307.1 33.9330
2308.2 33.9160
2309.2 33.8990
2310.2 33.8730
2311.3 33.8300
2312.3 33.7690
2313.3 33.6950
2314.4 33.6190
2315.4 33.5510
2316.4 33.4970
2317.5 33.4590
2318.5 33.4320
2319.5 33.4050
2320.6 33.3710
2321.6 33.3250
2322.6 33.2670
2323.7 33.2030
2324.7 33.1400
2325.8 33.0870
2326.8 33.0490
2327.9 33.0240
2328.9 33.0100
2330 33.0010
2331 32.9910
2332.1 32.9780
2333.1 32.9580
2334.2 32.9300
2335.2 32.8960
2336.3 32.8570
2337.3 32.8190
2338.4 32.7870
2339.4 32.7700
2340.5 32.7720
2341.5 32.7950
2342.6 32.8340
2343.6 32.8820
2344.7 32.9270
2345.8 32.9620
2346.8 32.9820
2347.9 32.9880
2349 32.9870
2350 32.9840
2351.1 32.9840
2352.2 32.9880
2353.2 32.9930
2354.3 32.9970
2355.4 32.9990
2356.4 33.0000
2357.5 33.0030
2358.6 33.0130
2359.7 33.0290
2360.7 33.0520
2361.8 33.0780
2362.9 33.1030
2364 33.1230
2365 33.1350
2366.1 33.1380
2367.2 33.1340
2368.3 33.1220
2369.4 33.1030
2370.4 33.0820
2371.5 33.0590
2372.6 33.0370
2373.7 33.0150
2374.8 32.9930
2375.9 32.9680
2377 32.9410
2378.1 32.9100
2379.1 32.8780
2380.2 32.8490
2381.3 32.8260
2382.4 32.8100
2383.5 32.8010
2384.6 32.7950
2385.7 32.7870
2386.8 32.7730
2387.9 32.7520
2389 32.7240
2390.1 32.6940
2391.2 32.6620
2392.3 32.6320
2393.4 32.6030
2394.5 32.5780
2395.6 32.5580
2396.7 32.5430
2397.9 32.5350
2399 32.5290
2400.1 32.5230
2401.2 32.5090
2402.3 32.4850
2403.4 32.4490
2404.5 32.4070
2405.6 32.3660
2406.8 32.3310
2407.9 32.3040
2409 32.2840
2410.1 32.2650
2411.2 32.2430
2412.4 32.2160
2413.5 32.1870
2414.6 32.1590
2415.7 32.1340
2416.9 32.1090
2418 32.0790
2419.1 32.0400
2420.2 31.9890
2421.4 31.9280
2422.5 31.8630
2423.6 31.8010
2424.8 31.7470
2425.9 31.6990
2427 31.6510
2428.2 31.5970
2429.3 31.5330
2430.5 31.4570
2431.6 31.3750
2432.7 31.2960
2433.9 31.2270
2435 31.1720
2436.2 31.1320
2437.3 31.1030
2438.5 31.0800
2439.6 31.0590
2440.8 31.0380
2441.9 31.0130
2443.1 30.9820
2444.2 30.9440
2445.4 30.8960
2446.5 30.8400
2447.7 30.7780
2448.8 30.7130
2450 30.6510
2451.1 30.5940
2452.3 30.5430
2453.5 30.4970
2454.6 30.4540
2455.8 30.4110
2456.9 30.3650
2458.1 30.3150
2459.3 30.2630
2460.4 30.2130
2461.6 30.1680
2462.8 30.1310
2464 30.1030
2465.1 30.0790
2466.3 30.0550
2467.5 30.0240
2468.6 29.9840
2469.8 29.9340
2471 29.8780
2472.2 29.8200
2473.4 29.7650
2474.5 29.7150
2475.7 29.6710
2476.9 29.6320
2478.1 29.5940
2479.3 29.5560
2480.5 29.5160
2481.6 29.4730
2482.8 29.4270
2484 29.3790
2485.2 29.3320
2486.4 29.2890
2487.6 29.2510
2488.8 29.2200
2490 29.1970
2491.2 29.1790
2492.4 29.1650
2493.6 29.1520
2494.8 29.1350
2496 29.1120
2497.2 29.0780
2498.4 29.0330
2499.6 28.9790
2500.8 28.9210
2502 28.8680
2503.2 28.8280
2504.4 28.8060
2505.6 28.8040
2506.8 28.8150
2508.1 28.8320
2509.3 28.8480
2510.5 28.8540
2511.7 28.8480
2512.9 28.8310
2514.1 28.8080
2515.4 28.7810
2516.6 28.7530
2517.8 28.7270
2519 28.7010
2520.2 28.6770
2521.5 28.6540
2522.7 28.6320
2523.9 28.6090
2525.2 28.5830
2526.4 28.5510
2527.6 28.5100
2528.9 28.4620
2530.1 28.4100
2531.3 28.3610
2532.6 28.3230
2533.8 28.3020
2535 28.2970
2536.3 28.3040
2537.5 28.3140
2538.8 28.3190
2540 28.3180
2541.3 28.3100
2542.5 28.2980
2543.7 28.2820
2545 28.2610
2546.2 28.2360
2547.5 28.2110
2548.7 28.2040
2550 28.2330
2551.3 28.3110
2552.5 28.4280
2553.8 28.5500
2555 28.6230
2556.3 28.5970
2557.5 28.4530
2558.8 28.2140
2560.1 27.9430
2561.3 27.7210
2562.6 27.6100
2563.9 27.6300
2565.1 27.7510
2566.4 27.9100
2567.7 28.0390
2569 28.0950
2570.2 28.0780
2571.5 28.0200
2572.8 27.9670
2574.1 27.9490
2575.3 27.9640
2576.6 27.9840
2577.9 27.9660
2579.2 27.8840
2580.5 27.7460
2581.7 27.5960
2583 27.4900
2584.3 27.4660
2585.6 27.5120
2586.9 27.5650
2588.2 27.5430
2589.5 27.3820
2590.8 27.0860
2592.1 26.7350
2593.4 26.4520
2594.7 26.3490
2596 26.4660
2597.3 26.7510
2598.6 27.0800
2599.9 27.3170
2601.2 27.3740
2602.5 27.2620
2603.8 27.0690
2605.1 26.9140
2606.4 26.8880
2607.7 27.0110
2609 27.2250
2610.3 27.4200
2611.7 27.4990
2613 27.4150
2614.3 27.1970
2615.6 26.9310
2616.9 26.7200
2618.3 26.6380
2619.6 26.7000
2620.9 26.8500
2622.2 26.9920
2623.6 27.0370
2624.9 26.9370
2626.2 26.7090
2627.5 26.4280
2628.9 26.1970
2630.2 26.1020
2631.5 26.1810
2632.9 26.4110
2634.2 26.7210
2635.6 27.0230
2636.9 27.2370
2638.2 27.3220
2639.6 27.2790
2640.9 27.1420
2642.3 26.9590
2643.6 26.7720
2645 26.6040
2646.3 26.4520
2647.7 26.3050
2649 26.1490
2650.4 25.9800
2651.7 25.8090
2653.1 25.6500
2654.5 25.5080
2655.8 25.3670
2657.2 25.1910
2658.5 24.9310
2659.9 24.5450
2661.3 24.0210
2662.6 23.3890
2664 22.7220
2665.4 22.1030
2666.7 21.6090
2668.1 21.2770
2669.5 21.0960
2670.9 21.0080
2672.2 20.9360
2673.6 20.8110
2675 20.5910
2676.4 20.2660
2677.8 19.8460
2679.1 19.3500
2680.5 18.7870
2681.9 18.1520
2683.3 17.4320
2684.7 16.6190
2686.1 15.7160
2687.5 14.7420
2688.9 13.7290
2690.3 12.7160
2691.7 11.7430
2693.1 10.8400
2694.5 10.0280
2695.9 9.3127
2697.3 8.6909
2698.7 8.1509
2700.1 7.6794
2701.5 7.2651
2702.9 6.9028
2704.3 6.5930
2705.7 6.3401
2707.1 6.1470
2708.5 6.0132
2710 5.9294
2711.4 5.8772
2712.8 5.8325
2714.2 5.7715
2715.6 5.6780
2717.1 5.5493
2718.5 5.3972
2719.9 5.2434
2721.3 5.1106
2722.8 5.0122
2724.2 4.9490
2725.6 4.9082
2727.1 4.8694
2728.5 4.8120
2729.9 4.7219
2731.4 4.5945
2732.8 4.4358
2734.3 4.2585
2735.7 4.0798
2737.1 3.9162
2738.6 3.7805
2740 3.6797
2741.5 3.6123
2742.9 3.5693
2744.4 3.5378
2745.8 3.5019
2747.3 3.4499
2748.8 3.3765
2750.2 3.2839
2751.7 3.1811
2753.1 3.0793
2754.6 2.9890
2756.1 2.9153
2757.5 2.8586
2759 2.8154
2760.5 2.7817
2761.9 2.7539
2763.4 2.7329
2764.9 2.7202
2766.4 2.7192
2767.8 2.7317
2769.3 2.7571
2770.8 2.7920
2772.3 2.8313
2773.8 2.8699
2775.2 2.9031
2776.7 2.9282
2778.2 2.9441
2779.7 2.9521
2781.2 2.9529
2782.7 2.9490
2784.2 2.9424
2785.7 2.9353
2787.2 2.9307
2788.7 2.9294
2790.2 2.9319
2791.7 2.9368
2793.2 2.9404
2794.7 2.9387
2796.2 2.9285
2797.7 2.9089
2799.2 2.8835
2800.7 2.8586
2802.2 2.8413
2803.8 2.8376
2805.3 2.8484
2806.8 2.8696
2808.3 2.8928
2809.8 2.9087
2811.4 2.9116
2812.9 2.9006
2814.4 2.8806
2815.9 2.8594
2817.5 2.8464
2819 2.8469
2820.5 2.8625
2822.1 2.8906
2823.6 2.9258
2825.2 2.9619
2826.7 2.9939
2828.2 3.0193
2829.8 3.0386
2831.3 3.0532
2832.9 3.0664
2834.4 3.0806
2836 3.0974
2837.5 3.1172
2839.1 3.1392
2840.6 3.1623
2842.2 3.1851
2843.7 3.2058
2845.3 3.2224
2846.9 3.2339
2848.4 3.2397
2850 3.2405
2851.6 3.2383
2853.1 3.2366
2854.7 3.2383
2856.3 3.2444
2857.9 3.2541
2859.4 3.2646
2861 3.2720
2862.6 3.2734
2864.2 3.2690
2865.8 3.2605
2867.3 3.2512
2868.9 3.2432
2870.5 3.2378
2872.1 3.2331
2873.7 3.2270
2875.3 3.2165
2876.9 3.2009
2878.5 3.1821
2880.1 3.1650
2881.7 3.1536
2883.3 3.1518
2884.9 3.1597
2886.5 3.1736
2888.1 3.1865
2889.7 3.1914
2891.3 3.1819
2892.9 3.1577
2894.6 3.1218
2896.2 3.0818
2897.8 3.0459
2899.4 3.0205
2901 3.0080
2902.7 3.0066
2904.3 3.0112
2905.9 3.0163
2907.5 3.0185
2909.2 3.0159
2910.8 3.0102
2912.4 3.0029
2914.1 2.9963
2915.7 2.9907
2917.4 2.9861
2919 2.9807
2920.7 2.9751
2922.3 2.9690
2923.9 2.9646
2925.6 2.9631
2927.2 2.9651
2928.9 2.9700
2930.6 2.9768
2932.2 2.9831
2933.9 2.9873
2935.5 2.9890
2937.2 2.9880
2938.9 2.9858
2940.5 2.9844
2942.2 2.9851
2943.9 2.9880
2945.5 2.9917
2947.2 2.9946
2948.9 2.9946
2950.6 2.9910
2952.3 2.9846
2953.9 2.9775
2955.6 2.9724
2957.3 2.9719
2959 2.9758
2960.7 2.9827
2962.4 2.9905
2964.1 2.9980
2965.8 3.0046
2967.5 3.0117
2969.2 3.0207
2970.9 3.0325
2972.6 3.0469
2974.3 3.0622
2976 3.0779
2977.7 3.0930
2979.4 3.1081
2981.1 3.1228
2982.8 3.1372
2984.5 3.1492
