# Soil optical properties : Black loam
# Colums : Wavelength(nm) Reflectance(%) Transmitance(%)
#
300 0.2005
400 0.2005
401 0.5048
402 0.3782
403 0.7244
404 0.8548
405 0.8686
406 0.8686
407 0.8686
408 0.8731
409 0.9152
410 0.9125
411 0.7832
412 0.9540
413 1.0796
414 1.0785
415 0.9479
416 0.8223
417 0.9860
418 0.9794
419 1.3172
420 1.3144
421 1.3122
422 1.3144
423 1.4870
424 1.6570
425 1.4898
426 1.5257
427 1.2676
428 1.1026
429 1.2705
430 1.6954
431 1.4380
432 1.6035
433 1.4749
434 1.6038
435 1.9331
436 1.9351
437 1.9367
438 1.8070
439 1.9695
440 1.9684
441 1.9700
442 1.8371
443 2.0032
444 2.1289
445 2.1274
446 1.9992
447 2.1644
448 1.9978
449 2.1574
450 2.1652
451 2.1661
452 2.4856
453 2.4792
454 2.4895
455 2.4856
456 2.6495
457 2.6465
458 2.6301
459 2.6242
460 2.7248
461 2.7161
462 2.4630
463 2.4693
464 2.6343
465 2.4946
466 2.6147
467 2.6272
468 2.6254
469 2.6218
470 2.6290
471 2.9457
472 2.9457
473 2.9457
474 2.9479
475 2.9545
476 3.0982
477 3.1005
478 3.0958
479 3.0863
480 3.0934
481 3.1029
482 3.0910
483 2.9551
484 3.0768
485 3.0674
486 3.3394
487 3.2490
488 3.2516
489 3.4886
490 3.0697
491 3.2183
492 3.0650
493 3.2361
494 3.2464
495 3.2259
496 3.2285
497 3.6276
498 3.3817
499 3.4093
500 3.6421
501 3.4696
502 3.6363
503 3.6247
504 3.6305
505 3.6247
506 3.6276
507 3.6189
508 3.6247
509 3.7712
510 3.7742
511 3.7562
512 3.7652
513 3.7473
514 3.7503
515 4.1983
516 3.7355
517 3.8516
518 4.1538
519 3.8607
520 4.2052
521 3.8881
522 3.8820
523 4.1845
524 3.9890
525 3.9859
526 3.9735
527 4.1640
528 4.4033
529 4.4033
530 4.3962
531 4.3856
532 4.0763
533 4.4175
534 4.4570
535 4.4498
536 4.4283
537 4.7051
538 4.6751
539 4.6788
540 4.6565
541 4.6454
542 4.3415
543 4.4527
544 4.7662
545 4.4426
546 4.4731
547 4.6085
548 4.6190
549 4.9023
550 4.8792
551 4.8563
552 4.9569
553 4.6420
554 4.9415
555 4.7652
556 5.0685
557 5.0764
558 5.1119
559 5.0587
560 5.0349
561 5.1518
562 5.2781
563 5.5092
564 5.3557
565 5.3722
566 5.3764
567 5.5049
568 5.5091
569 5.5175
570 5.6816
571 5.7704
572 5.7349
573 5.6335
574 5.8381
575 5.8655
576 5.7338
577 5.9490
578 5.9962
579 6.1194
580 5.9696
581 5.9373
582 5.9236
583 5.9190
584 5.9650
585 6.4253
586 6.2500
587 6.3736
588 5.9696
589 6.2500
590 6.3851
591 6.2163
592 6.3443
593 6.3395
594 6.3201
595 6.3883
596 6.4723
597 6.5903
598 6.6156
599 6.7328
600 6.6725
601 6.6474
602 6.6125
603 6.8392
604 6.8290
605 6.9605
606 6.9500
607 7.0486
608 6.8779
609 6.8881
610 6.8932
611 7.0230
612 7.0230
613 7.0024
614 7.0075
615 7.0075
616 6.9921
617 7.1164
618 7.2386
619 7.1589
620 7.1906
621 7.3011
622 7.3436
623 7.2709
624 7.4973
625 7.3011
626 7.3064
627 7.3382
628 7.5139
629 7.5001
630 7.6080
631 7.4892
632 7.4838
633 7.4621
634 7.5860
635 7.5806
636 7.8348
637 7.7044
638 7.8508
639 8.0413
640 8.0528
641 8.0586
642 8.0643
643 7.8170
644 8.0413
645 8.1705
646 8.1647
647 8.1242
648 7.9673
649 8.1242
650 8.1531
651 8.3058
652 8.4294
653 8.4654
654 8.4957
655 8.0671
656 8.1633
657 8.7012
658 8.6399
659 8.6582
660 8.3826
661 8.8376
662 8.8313
663 8.9050
664 8.9364
665 8.9427
666 8.9427
667 8.7900
668 9.0921
669 9.0665
670 9.0538
671 9.0410
672 8.8412
673 9.0878
674 9.1189
675 9.1501
676 9.2615
677 9.1689
678 9.2741
679 9.2552
680 9.1737
681 9.1924
682 9.3218
683 9.4449
684 9.4577
685 9.6847
686 9.7043
687 9.7109
688 9.7307
689 9.8743
690 9.8343
691 9.8343
692 9.9577
693 9.9711
694 10.1288
695 10.1151
696 10.1426
697 10.0800
698 10.1421
699 10.3675
700 10.3329
701 10.3515
702 10.3583
703 10.3721
704 10.5281
705 10.5561
706 10.5631
707 10.6921
708 10.5421
709 10.6567
710 10.9001
711 11.0290
712 10.9782
713 10.9710
714 10.9854
715 10.9638
716 10.9278
717 11.1765
718 11.1912
719 11.2280
720 11.4010
721 11.0630
722 11.1912
723 11.2826
724 11.5616
725 11.5064
726 11.6046
727 11.5673
728 11.5465
729 11.5240
730 11.5540
731 11.6293
732 11.8036
733 11.9169
734 12.1350
735 12.2081
736 12.2081
737 12.0867
738 12.2072
739 12.2072
740 12.2229
741 12.2150
742 12.1923
743 12.1292
744 12.2568
745 12.4165
746 12.2725
747 12.3846
748 12.6325
749 12.6404
750 12.6164
751 12.5843
752 12.4964
753 12.7525
754 12.5767
755 12.6324
756 12.7527
757 12.8890
758 12.7205
759 13.1133
760 13.1671
761 13.0065
762 12.9821
763 13.1258
764 13.1588
765 13.1671
766 13.1753
767 13.1671
768 13.2285
769 13.3998
770 13.3560
771 13.3560
772 13.4753
773 13.3497
774 13.5968
775 13.6053
776 13.6881
777 13.7052
778 13.7309
779 13.8071
780 13.8443
781 13.6739
782 13.7985
783 13.9958
784 13.9609
785 14.0451
786 14.1243
787 14.1154
788 14.2831
789 14.3277
790 14.2565
791 14.2743
792 14.1596
793 14.2958
794 13.8834
795 14.3046
796 14.4418
797 14.5022
798 14.4629
799 14.4643
800 15.0527
804 15.1981
808 15.5715
812 15.7402
816 15.6155
820 15.7206
824 15.8223
828 15.9828
832 16.2585
836 16.4328
840 16.4467
844 16.5384
848 16.8623
852 16.9717
856 17.1707
860 17.2192
864 17.6055
868 17.4961
872 17.6138
876 17.7704
880 17.9354
884 18.0621
888 18.1101
892 18.1578
896 18.1584
900 18.2551
904 18.4183
908 18.5142
912 18.7354
916 18.9665
920 19.1361
924 19.1055
928 19.3768
932 19.3975
936 19.7330
940 19.7784
944 19.8623
948 20.2375
952 20.2195
956 20.2488
960 20.4680
964 20.8636
968 20.7909
972 21.0376
976 21.2165
980 21.3199
984 21.1740
988 21.0371
992 21.5950
996 21.8004
1000 21.8531
1004 21.8984
1008 22.2524
1012 22.2612
1016 22.4767
1020 22.6614
1024 22.6495
1028 22.8532
1032 22.9670
1036 23.2592
1040 23.1823
1044 23.3484
1048 23.2874
1052 23.5531
1056 23.6266
1060 23.9783
1064 23.9283
1068 23.9911
1072 24.0683
1076 24.4843
1080 24.6590
1084 24.5311
1088 24.7720
1092 24.9064
1096 24.9929
1100 24.8803
1104 25.0322
1108 25.1388
1112 25.3367
1116 25.5153
1120 25.6361
1124 25.9338
1128 26.3418
1132 26.2168
1136 26.0496
1140 25.9373
1144 26.0225
1148 26.2190
1152 26.4172
1156 26.7635
1160 26.7651
1164 26.8064
1168 26.8612
1172 27.0672
1176 27.2585
1180 27.4228
1184 27.4398
1188 27.5907
1192 27.4969
1196 27.7884
1200 27.8175
1204 27.8030
1208 27.8848
1212 27.8411
1216 28.1160
1220 28.3315
1224 28.7109
1228 28.7918
1232 29.1722
1236 29.2217
1240 29.1908
1244 28.8116
1248 28.6552
1252 29.0950
1256 29.1291
1260 29.2246
1264 29.1938
1268 29.1324
1272 29.0028
1276 29.1467
1280 29.3051
1284 29.3858
1288 29.5284
1292 29.6840
1296 29.8789
1300 29.8388
1304 29.8080
1308 29.6614
1312 29.6157
1316 29.7079
1320 30.0691
1324 30.2078
1328 30.0919
1332 30.4073
1336 30.6668
1340 30.5098
1344 30.6991
1348 30.3659
1352 30.6283
1356 30.8055
1360 30.4737
1364 30.5290
1368 30.4498
1372 30.6022
1376 30.3963
1380 30.0499
1384 29.8695
1388 30.0499
1392 29.8945
1396 29.8255
1400 29.7027
1404 29.8280
1408 29.5693
1412 29.8473
1416 29.9542
1420 30.2218
1424 30.1829
1428 30.0758
1432 30.2609
1436 30.4394
1440 30.5312
1444 30.4443
1448 30.4647
1452 30.5209
1456 30.6235
1460 30.5331
1464 30.7180
1468 30.7611
1472 30.9004
1476 30.8041
1480 31.0956
1484 31.1435
1488 31.3051
1492 31.2882
1496 31.2372
1500 31.7897
1504 31.9923
1508 32.2110
1512 32.2275
1516 32.1394
1520 32.3230
1524 32.3726
1528 32.3788
1532 32.3833
1536 32.5945
1540 32.8956
1544 32.9171
1548 32.7056
1552 32.7388
1556 33.0058
1560 33.0396
1564 32.9889
1568 32.9932
1572 33.2579
1576 33.2072
1580 33.4309
1584 33.3165
1588 33.5506
1592 33.6906
1596 33.6193
1600 33.6218
1604 33.6868
1608 33.5703
1612 33.5190
1616 33.5019
1620 33.6529
1624 33.8863
1628 33.8345
1632 33.7657
1636 33.6801
1640 33.6972
1644 33.5244
1648 33.8191
1652 33.7848
1656 33.7334
1660 33.7014
1664 33.8055
1668 33.9081
1672 33.8568
1676 34.0481
1680 34.1785
1684 34.0491
1688 34.0835
1692 34.1531
1696 34.2225
1700 34.6983
1704 34.7319
1708 34.4128
1712 34.4992
1716 34.3261
1720 34.3430
1724 34.3603
1728 34.8791
1732 34.5001
1736 34.8218
1740 34.5518
1744 34.2742
1748 34.4729
1752 34.5956
1756 34.6144
1760 34.5968
1764 34.5956
1768 34.5604
1772 34.3088
1776 34.5169
1780 34.8709
1784 34.9217
1788 34.6883
1792 34.6023
1796 34.8180
1800 34.8004
1804 34.4989
1808 34.5850
1812 34.8427
1816 34.8761
1820 34.8601
1824 34.7580
1828 34.8553
1832 34.7384
1836 34.9169
1840 35.0534
1844 34.9363
1848 35.0280
1852 34.7461
1856 34.6241
1860 34.5234
1864 34.1959
1868 33.8617
1872 33.2241
1876 32.8399
1880 32.5134
1884 31.7515
1888 30.9002
1892 29.9838
1896 29.2777
1900 28.3771
1904 28.0490
1908 27.5158
1912 27.0799
1916 26.8887
1920 27.2485
1924 27.7462
1928 27.7655
1932 28.0838
1936 28.2238
1940 28.5086
1944 28.8637
1948 29.1439
1952 29.5116
1956 29.8782
1960 30.0838
1964 30.4074
1968 30.6131
1972 30.6642
1976 30.8075
1980 31.2402
1984 31.3421
1988 31.7251
1992 31.7094
1996 31.8965
2000 32.1281
2004 32.4679
2008 32.3714
2012 32.1586
2016 32.1586
2020 32.1326
2024 32.6035
2028 32.9408
2032 32.6282
2036 32.4756
2040 32.4440
2044 32.5760
2048 32.4125
2052 32.6647
2056 32.6172
2060 32.6536
2064 32.7645
2068 32.7645
2072 32.4608
2076 32.6268
2079.5 32.3576
2080.3 32.3678
2081.2 32.5022
2082 32.4989
2082.8 32.4590
2083.7 32.5286
2084.5 32.4623
2085.3 32.5057
2086.2 32.5147
2087 32.4441
2087.9 32.4224
2088.7 32.4600
2089.5 32.4454
2090.4 32.4429
2091.2 32.5320
2092.1 32.4305
2092.9 32.3518
2093.8 32.3826
2094.6 32.3290
2095.5 32.4305
2096.3 32.5044
2097.1 32.4875
2098 32.4783
2098.8 32.4977
2099.7 32.5767
2100.5 32.5525
2101.4 32.5092
2102.3 32.5961
2103.1 32.6213
2104 32.5389
2104.8 32.4396
2105.7 32.3885
2106.5 32.4351
2107.4 32.4554
2108.2 32.4908
2109.1 32.5081
2110 32.5435
2110.8 32.5743
2111.7 32.5777
2112.5 32.5331
2113.4 32.4269
2114.3 32.4406
2115.1 32.4259
2116 32.3554
2116.8 32.3406
2117.7 32.3975
2118.6 32.5022
2119.4 32.5859
2120.3 32.6051
2121.2 32.5961
2122 32.5640
2122.9 32.5035
2123.8 32.5092
2124.7 32.5171
2125.5 32.4726
2126.4 32.4521
2127.3 32.4327
2128.1 32.3382
2129 32.3609
2129.9 32.2996
2130.8 32.3190
2131.6 32.4224
2132.5 32.3736
2133.4 32.3269
2134.3 32.3451
2135.2 32.3746
2136 32.3930
2136.9 32.4112
2137.8 32.4075
2138.7 32.3484
2139.6 32.3269
2140.4 32.3484
2141.3 32.4008
2142.2 32.3885
2143.1 32.3155
2144 32.2271
2144.9 32.1683
2145.8 32.1131
2146.6 32.1650
2147.5 32.2135
2148.4 32.2951
2149.3 32.3269
2150.2 32.2430
2151.1 32.2248
2152 32.2113
2152.9 32.1333
2153.8 32.1501
2154.7 32.2113
2155.6 32.2193
2156.5 32.1966
2157.4 32.1919
2158.3 32.1131
2159.2 32.0553
2160.1 32.0824
2161 32.1729
2161.9 32.2193
2162.8 32.1468
2163.7 32.1492
2164.6 32.0994
2165.5 32.0475
2166.4 32.0623
2167.3 32.0860
2168.2 32.0678
2169.1 32.0353
2170 32.0353
2170.9 32.0441
2171.8 32.0070
2172.7 31.9654
2173.6 32.0149
2174.6 32.1264
2175.5 32.1501
2176.4 32.0870
2177.3 32.0702
2178.2 32.0229
2179.1 31.9396
2180 31.9441
2181 31.9711
2181.9 31.9733
2182.8 31.9666
2183.7 31.9396
2184.6 31.8891
2185.6 31.8948
2186.5 31.8891
2187.4 31.8377
2188.3 31.8020
2189.3 31.8096
2190.2 31.8534
2191.1 31.8577
2192 31.7640
2193 31.6882
2193.9 31.6692
2194.8 31.6491
2195.7 31.6637
2196.7 31.6947
2197.6 31.6805
2198.5 31.5948
2199.5 31.4950
2200.4 31.4773
2201.3 31.4706
2202.3 31.4266
2203.2 31.4187
2204.1 31.3869
2205.1 31.3592
2206 31.3448
2207 31.2854
2207.9 31.3338
2208.8 31.4153
2209.8 31.5072
2210.7 31.5439
2211.7 31.5870
2212.6 31.6448
2213.6 31.6591
2214.5 31.6458
2215.5 31.7271
2216.4 31.8443
2217.3 31.8556
2218.3 31.9250
2219.2 31.9644
2220.2 32.0274
2221.1 32.0317
2222.1 32.0162
2223.1 32.0453
2224 32.0960
2225 32.0972
2225.9 32.0757
2226.9 32.0780
2227.8 32.1209
2228.8 32.1468
2229.7 32.1492
2230.7 32.0982
2231.7 32.1254
2232.6 32.1446
2233.6 32.1401
2234.5 32.1131
2235.5 32.0578
2236.5 32.0207
2237.4 31.9678
2238.4 31.9419
2239.4 31.9115
2240.3 32.0149
2241.3 32.0553
2242.3 31.9195
2243.3 31.8501
2244.2 31.8029
2245.2 31.7460
2246.2 31.6713
2247.1 31.6680
2248.1 31.7527
2249.1 31.7652
2250.1 31.7472
2251 31.7572
2252 31.6603
2253 31.6037
2254 31.5326
2255 31.4330
2255.9 31.4056
2256.9 31.3869
2257.9 31.4320
2258.9 31.4242
2259.9 31.3405
2260.9 31.3062
2261.8 31.3395
2262.8 31.3129
2263.8 31.3184
2264.8 31.3129
2265.8 31.3019
2266.8 31.2876
2267.8 31.2524
2268.8 31.2558
2269.8 31.2603
2270.8 31.2229
2271.8 31.2087
2272.8 31.2294
2273.8 31.2613
2274.7 31.2536
2275.7 31.1997
2276.7 31.1210
2277.7 31.0610
2278.7 31.0589
2279.8 31.0632
2280.8 31.0794
2281.8 31.0599
2282.8 31.0010
2283.8 30.9651
2284.8 30.9497
2285.8 30.9301
2286.8 30.8890
2287.8 30.9031
2288.8 30.9117
2289.8 30.8553
2290.8 30.8273
2291.8 30.7883
2292.9 30.7040
2293.9 30.7406
2294.9 30.7665
2295.9 30.6609
2296.9 30.5899
2297.9 30.5545
2299 30.5201
2300 30.4590
2301 30.4388
2302 30.4600
2303 30.4301
2304.1 30.3810
2305.1 30.3595
2306.1 30.3490
2307.1 30.3127
2308.2 30.2798
2309.2 30.3277
2310.2 30.3404
2311.3 30.2978
2312.3 30.2626
2313.3 30.2765
2314.4 30.3042
2315.4 30.3191
2316.4 30.3265
2317.5 30.3147
2318.5 30.3459
2319.5 30.3937
2320.6 30.3820
2321.6 30.3478
2322.6 30.3265
2323.7 30.3628
2324.7 30.3725
2325.8 30.3329
2326.8 30.2925
2327.9 30.2626
2328.9 30.2574
2330 30.2415
2331 30.1799
2332.1 30.1270
2333.1 30.0877
2334.2 30.0911
2335.2 30.0571
2336.3 30.0391
2337.3 30.0191
2338.4 29.9897
2339.4 29.9181
2340.5 29.9159
2341.5 29.8948
2342.6 29.8530
2343.6 29.8382
2344.7 29.8078
2345.8 29.8111
2346.8 29.7879
2347.9 29.7076
2349 29.6886
2350 29.7190
2351.1 29.6386
2352.2 29.5889
2353.2 29.5793
2354.3 29.5992
2355.4 29.6595
2356.4 29.7358
2357.5 29.8509
2358.6 29.8298
2359.7 29.7891
2360.7 29.7923
2361.8 29.7692
2362.9 29.7577
2364 29.7327
2365 29.6877
2366.1 29.6615
2367.2 29.6545
2368.3 29.5992
2369.4 29.5680
2370.4 29.5503
2371.5 29.5025
2372.6 29.4913
2373.7 29.4726
2374.8 29.4477
2375.9 29.4994
2377 29.5307
2378.1 29.4272
2379.1 29.3260
2380.2 29.2951
2381.3 29.2630
2382.4 29.2590
2383.5 29.2353
2384.6 29.1768
2385.7 29.1922
2386.8 29.2425
2387.9 29.2951
2389 29.2898
2390.1 29.2046
2391.2 29.1297
2392.3 29.0726
2393.4 29.0397
2394.5 29.0326
2395.6 29.0225
2396.7 29.0267
2397.9 29.0317
2399 28.9878
2400.1 28.9278
2401.2 28.8821
2402.3 28.8589
2403.4 28.8426
2404.5 28.9015
2405.6 28.8974
2406.8 28.8173
2407.9 28.7737
2409 28.7364
2410.1 28.7232
2411.2 28.6910
2412.4 28.6436
2413.5 28.6407
2414.6 28.5965
2415.7 28.5280
2416.9 28.4931
2418 28.4540
2419.1 28.3473
2420.2 28.2668
2421.4 28.2172
2422.5 28.2140
2423.6 28.1844
2424.8 28.0904
2425.9 28.0303
2427 27.9921
2428.2 27.9399
2429.3 27.8399
2430.5 27.7579
2431.6 27.7442
2432.7 27.7170
2433.9 27.6741
2435 27.5925
2436.2 27.5219
2437.3 27.4822
2438.5 27.3946
2439.6 27.3118
2440.8 27.2497
2441.9 27.1865
2443.1 27.1578
2444.2 27.1188
2445.4 27.0683
2446.5 27.0351
2447.7 26.9631
2448.8 26.8871
2450 26.8173
2451.1 26.7759
2452.3 26.7450
2453.5 26.6718
2454.6 26.6465
2455.8 26.5950
2456.9 26.5317
2458.1 26.4971
2459.3 26.4737
2460.4 26.4562
2461.6 26.3727
2462.8 26.2443
2464 26.1374
2465.1 26.0796
2466.3 26.0392
2467.5 26.0347
2468.6 26.0340
2469.8 26.0457
2471 26.0120
2472.2 25.9124
2473.4 25.8524
2474.5 25.8443
2475.7 25.8326
2476.9 25.7610
2478.1 25.7210
2479.3 25.6679
2480.5 25.6220
2481.6 25.5923
2482.8 25.5438
2484 25.5284
2485.2 25.5438
2486.4 25.4802
2487.6 25.4122
2488.8 25.3524
2490 25.2679
2491.2 25.2387
2492.4 25.2529
2493.6 25.2482
2494.8 25.2208
2496 25.2305
2497.2 25.2768
2498.4 25.2652
2499.6 25.2537
2500.8 25.1996
2502 25.1191
2503.2 25.0829
2504.4 25.1033
2505.6 25.1226
2506.8 25.0937
2508.1 25.0556
2509.3 25.0556
2510.5 25.0126
2511.7 24.9775
2512.9 24.9977
2514.1 25.0037
2515.4 24.9748
2516.6 24.9880
2517.8 24.9846
2519 24.9538
2520.2 24.9372
2521.5 24.9531
2522.7 24.9695
2523.9 24.9274
2525.2 24.9626
2526.4 25.0109
2527.6 24.9767
2528.9 24.9300
2530.1 24.9556
2531.3 24.9616
2532.6 24.9152
2533.8 24.8470
2535 24.8140
2536.3 24.7939
2537.5 24.8226
2538.8 24.8365
2540 24.8190
2541.3 24.8348
2542.5 24.8434
2543.7 24.8401
2545 24.8803
2546.2 24.8995
2547.5 24.8995
2548.7 24.8803
2550 24.8846
2551.3 24.8863
2552.5 24.8714
2553.8 24.8968
2555 24.9820
2556.3 25.0478
2557.5 25.0057
2558.8 24.8322
2560.1 24.6331
2561.3 24.4444
2562.6 24.4048
2563.9 24.5322
2565.1 24.6844
2566.4 24.7739
2567.7 24.8384
2569 24.7781
2570.2 24.6887
2571.5 24.6308
2572.8 24.5693
2574.1 24.5900
2575.3 24.6374
2576.6 24.6730
2577.9 24.8008
2579.2 24.7861
2580.5 24.6740
2581.7 24.5546
2583 24.3647
2584.3 24.3049
2585.6 24.4041
2586.9 24.5209
2588.2 24.7487
2589.5 24.8444
2590.8 24.5693
2592.1 24.1661
2593.4 23.7711
2594.7 23.6526
2596 23.8388
2597.3 24.1745
2598.6 24.5875
2599.9 24.8104
2601.2 24.6254
2602.5 24.3159
2603.8 24.0711
2605.1 23.9412
2606.4 23.9666
2607.7 24.0938
2609 24.2460
2610.3 24.4152
2611.7 24.4230
2613 24.2842
2614.3 24.1338
2615.6 23.9311
2616.9 23.6953
2618.3 23.6103
2619.6 23.6684
2620.9 23.8062
2622.2 23.8857
2623.6 23.8991
2624.9 23.9034
2626.2 23.6536
2627.5 23.3990
2628.9 23.2548
2630.2 23.1657
2631.5 23.2253
2632.9 23.3170
2634.2 23.4450
2635.6 23.5046
2636.9 23.4278
2638.2 23.3663
2639.6 23.2875
2640.9 23.1472
2642.3 23.0239
2643.6 22.8312
2645 22.7098
2646.3 22.6746
2647.7 22.5618
2649 22.4384
2650.4 22.2971
2651.7 22.0858
2653.1 21.9133
2654.5 21.7967
2655.8 21.6738
2657.2 21.5696
2658.5 21.4388
2659.9 21.2067
2661.3 20.8586
2662.6 20.4277
2664 20.0715
2665.4 19.6832
2666.7 19.2156
2668.1 18.9914
2669.5 18.9422
2670.9 18.8438
2672.2 18.6771
2673.6 18.4191
2675 18.1174
2676.4 17.7340
2677.8 17.3238
2679.1 16.9898
2680.5 16.6449
2681.9 16.1431
2683.3 15.5097
2684.7 14.8320
2686.1 14.0601
2687.5 13.2203
2688.9 12.3044
2690.3 11.3344
2691.7 10.3893
2693.1 9.4994
2694.5 8.7881
2695.9 8.2612
2697.3 7.8801
2698.7 7.5918
2700.1 7.3293
2701.5 7.1078
2702.9 6.9891
2704.3 6.9121
2705.7 6.8246
2707.1 6.7070
2708.5 6.6175
2710 6.5400
2711.4 6.5133
2712.8 6.5106
2714.2 6.4697
2715.6 6.3630
2717.1 6.1896
2718.5 5.9660
2719.9 5.7213
2721.3 5.4883
2722.8 5.3048
2724.2 5.2037
2725.6 5.1232
2727.1 5.0038
2728.5 4.8727
2729.9 4.7246
2731.4 4.5504
2732.8 4.3994
2734.3 4.2113
2735.7 4.0336
2737.1 3.8938
2738.6 3.7661
2740 3.6507
2741.5 3.5635
2742.9 3.5249
2744.4 3.4708
2745.8 3.3885
2747.3 3.3143
2748.8 3.2239
2750.2 3.1595
2751.7 3.0416
2753.1 2.9385
2754.6 2.8559
2756.1 2.8038
2757.5 2.7969
2759 2.7944
2760.5 2.7992
2761.9 2.7695
2763.4 2.7552
2764.9 2.7877
2766.4 2.8093
2767.8 2.8171
2769.3 2.8530
2770.8 2.8796
2772.3 2.8589
2773.8 2.8450
2775.2 2.8176
2776.7 2.8093
2778.2 2.8165
2779.7 2.8136
2781.2 2.8230
2782.7 2.8301
2784.2 2.8260
2785.7 2.8031
2787.2 2.7934
2788.7 2.7978
2790.2 2.7712
2791.7 2.7411
2793.2 2.7303
2794.7 2.7117
2796.2 2.7129
2797.7 2.7313
2799.2 2.7530
2800.7 2.7629
2802.2 2.7454
2803.8 2.7308
2805.3 2.7196
2806.8 2.6966
2808.3 2.6732
2809.8 2.6593
2811.4 2.6320
2812.9 2.6416
2814.4 2.6341
2815.9 2.6215
2817.5 2.6428
2819 2.6047
2820.5 2.5693
2822.1 2.5937
2823.6 2.6069
2825.2 2.6399
2826.7 2.6735
2828.2 2.6940
2829.8 2.7017
2831.3 2.6865
2832.9 2.6663
2834.4 2.6464
2836 2.6363
2837.5 2.6483
2839.1 2.6428
2840.6 2.5918
2842.2 2.4963
2843.7 2.4968
2845.3 2.5354
2846.9 2.5655
2848.4 2.5494
2850 2.4916
2851.6 2.4726
2853.1 2.4709
2854.7 2.4756
2856.3 2.4803
2857.9 2.4722
2859.4 2.4320
2861 2.4224
2862.6 2.4614
2864.2 2.4554
2865.8 2.4420
2867.3 2.4829
2868.9 2.5203
2870.5 2.4744
2872.1 2.4418
2873.7 2.4540
2875.3 2.4473
2876.9 2.4332
2878.5 2.4100
2880.1 2.4186
2881.7 2.4394
2883.3 2.4203
2884.9 2.4069
2886.5 2.4305
2888.1 2.4363
2889.7 2.4372
2891.3 2.4004
2892.9 2.3877
2894.6 2.3712
2896.2 2.3695
2897.8 2.3755
2899.4 2.3879
2901 2.4126
2902.7 2.4026
2904.3 2.4066
2905.9 2.3987
2907.5 2.3647
2909.2 2.3184
2910.8 2.3090
2912.4 2.3406
2914.1 2.3286
2915.7 2.3313
2917.4 2.3351
2919 2.3092
2920.6 2.2834
2922.3 2.3026
2923.9 2.3478
2925.6 2.3624
2927.2 2.3772
2928.9 2.3851
2930.6 2.3805
2932.2 2.3679
2933.9 2.3415
2935.5 2.3580
2937.2 2.3614
2938.9 2.3463
2940.5 2.3466
2942.2 2.3755
2943.9 2.3894
2945.5 2.3872
2947.2 2.3750
2948.9 2.3702
2950.6 2.3984
2952.3 2.4086
2953.9 2.3978
2955.6 2.3822
2957.3 2.3737
2959 2.3984
2960.7 2.4071
2962.4 2.4016
2964.1 2.4119
2965.8 2.3987
2967.5 2.3722
2969.2 2.3677
2970.9 2.3856
2972.6 2.4148
2974.3 2.4270
2976 2.4343
2977.7 2.4701
2979.4 2.4921
2981.1 2.4569
2982.8 2.4375
2984.5 2.4739
2986.3 2.4820
2988 2.4717
2989.7 2.4858
2991.4 2.4702
2993.2 2.4569
2994.9 2.4764
2996.6 2.4794
2998.4 2.5026
3000.1 2.5367
3001.8 2.5564
3003.6 2.5861
3005.3 2.5671
3007 2.5474
3008.8 2.5504
3010.5 2.5272
3012.3 2.4911
3014 2.5098
3015.8 2.5377
3017.6 2.5621
